T(K)       rho(kg/m3)      h(J/kg)         s(J/K/kg)       Cp(J/K/kg)      p*kappa_T(1)    gamma(1)        vel(m/s)        sigma(S/m)      eta(kg/m/s)     kappa(W/m/K)    
300        5.14562         -8.06418e+06    2184.56         682.425         1               1.10488         146.534         1e-06           1.51524e-05     0.0144448       
400        3.85921         -7.98932e+06    2399.08         805.106         1               1.0875          167.867         1e-06           1.96026e-05     0.0217658       
500        3.08737         -7.90459e+06    2587.83         884.19          1               1.07906         186.951         1e-06           2.40228e-05     0.0291681       
600        2.57281         -7.81336e+06    2754.02         936.845         1               1.07428         204.341         1e-06           2.84237e-05     0.0365351       
700        2.20527         -7.7178e+06     2901.25         971.884         1               1.07141         220.419         1e-06           3.28044e-05     0.0437696       
800        1.92961         -7.61936e+06    3032.67         995.589         1               1.0696          235.437         1e-06           3.7159e-05      0.050844        
900        1.71521         -7.51888e+06    3150.99         1013.33         1               1.0683          249.567         1e-06           4.14794e-05     0.0578186       
1000       1.54367         -7.41671e+06    3258.62         1030.46         1.00001         1.06711         262.922         1e-06           4.57577e-05     0.0646295       
1100       1.40323         -7.31335e+06    3359.41         1041.24         1.00005         1.06661         275.694         1e-06           4.99826e-05     0.0720314       
1200       1.28568         -7.20801e+06    3451.05         1070.31         1.00036         1.06606         287.903         1e-06           5.41552e-05     0.0820513       
1300       1.18412         -7.09736e+06    3539.58         1159.65         1.0018          1.06627         299.808         1e-06           5.82918e-05     0.103188        
1400       1.0904          -6.97024e+06    3633.66         1429.13         1.00718         1.07013         312.156         1e-06           6.2461e-05      0.159111        
1500       0.991925        -6.79675e+06    3753.07         2151.72         1.02371         1.08638         327.086         1e-06           6.68504e-05     0.304239        
1600       0.86948         -6.50588e+06    3940.19         3915.61         1.0666          1.1329          349.514         1e-06           7.18523e-05     0.636795        
1700       0.703621        -5.93981e+06    4282.16         7911.58         1.15771         1.23492         389.359         1e-06           7.80436e-05     1.26186         
1800       0.506296        -4.82112e+06    4919.71         14606.8         1.27409         1.37147         461.096         1e-06           8.5449e-05      1.91616         
1900       0.355497        -3.25824e+06    5764.79         14253.9         1.2316          1.34465         554.182         1e-06           9.18269e-05     1.48977         
2000       0.286784        -2.17515e+06    6321.69         8377.34         1.12426         1.24658         621.8           1e-06           9.58437e-05     0.887883        
2100       0.245186        -1.32695e+06    6735.3          9396.77         1.13408         1.26565         674.665         1e-06           9.88662e-05     1.04563         
2200       0.207073        -268108         7227.5          11351.5         1.1607          1.30492         736.834         1e-06           0.000101436     1.21946         
2300       0.176991        815491          7709.45         9774.6          1.13513         1.29129         801.706         1e-06           0.000103827     1.01619         
2400       0.157149        1.64779e+06     8064.1          7000.28         1.09128         1.25819         856.543         2.5867e-06      0.00010632      0.750869        
2500       0.143576        2.27142e+06     8318.84         5799.36         1.06717         1.23826         898.978         7.08052e-06     0.000108975     0.660367        
2600       0.13245         2.86673e+06     8552.26         6345.67         1.06656         1.23315         934.307         1.7051e-05      0.000111727     0.748294        
2700       0.121864        3.56925e+06     8817.23         7721.23         1.07984         1.24493         972.643         3.81089e-05     0.000114532     0.912791        
2800       0.111705        4.38501e+06     9113.83         8349.14         1.08822         1.25933         1017.83         8.69696e-05     0.000117385     0.983583        
2900       0.10286         5.1875e+06      9395.52         7497.22         1.08065         1.26352         1066.16         0.000214684     0.000120274     0.896076        
3000       0.0957754       5.86361e+06     9624.88         6012.06         1.06505         1.26475         1113.5          0.000538829     0.000123159     0.747092        
3100       0.0901741       6.39807e+06     9800.24         4745.82         1.05097         1.27137         1158.25         0.00129192      0.000126004     0.622993        
3200       0.0855998       6.82678e+06     9936.42         3890.53         1.04108         1.28333         1200.03         0.00290684      0.000128798     0.539383        
3300       0.0817145       7.18606e+06     10047           3331.77         1.03444         1.29783         1239.1          0.00614342      0.000131542     0.47458         
3400       0.0783191       7.49843e+06     10140.3         2933.92         1.02961         1.31367         1276.36         0.0122593       0.000134247     0.435693        
3500       0.075302        7.7754e+06      10220.6         2614.49         1.02563         1.33114         1312.85         0.0232409       0.000136932     0.403211        
3600       0.0725956       8.02272e+06     10290.3         2337.55         1.02203         1.35087         1349.34         0.0421358       0.000139597     0.375468        
3700       0.0701521       8.244e+06       10350.9         2093.44         1.01869         1.37313         1386.16         0.0735608       0.00014226      0.351228        
3800       0.0679331       8.44252e+06     10403.9         1882.76         1.01563         1.3975          1423.2          0.124485        0.000144925     0.330949        
3900       0.0659051       8.62172e+06     10450.5         1707.31         1.01292         1.4229          1459.96         0.205354        0.000147593     0.314976        
4000       0.0640395       8.78514e+06     10491.8         1566.7          1.0106          1.44776         1495.66         0.331531        0.000150265     0.303309        
4100       0.0623115       8.93614e+06     10529.1         1458.22         1.00867         1.47032         1529.49         0.524962        0.000152936     0.295671        
4200       0.0607009       9.07772e+06     10563.3         1377.79         1.0071          1.48907         1560.72         0.815879        0.000155609     0.291532        
4300       0.0591908       9.21249e+06     10595           1321.06         1.00584         1.50297         1588.85         1.24442         0.000158278     0.290546        
4400       0.057768        9.34259e+06     10624.9         1284.03         1.00487         1.51153         1613.65         1.86207         0.000160933     0.292613        
4500       0.0564212       9.46984e+06     10653.5         1263.4          1.00411         1.51476         1635.16         2.73295         0.000163585     0.297169        
4600       0.0551418       9.59573e+06     10681.1         1256.58         1.00355         1.51309         1653.57         3.93505         0.000166227     0.304587        
4700       0.0539221       9.72155e+06     10708.2         1261.58         1.00315         1.50716         1669.21         5.5615          0.000168861     0.313736        
4800       0.0527561       9.84839e+06     10734.9         1276.91         1.00289         1.49775         1682.51         7.72171         0.000171481     0.324976        
4900       0.0516385       9.97723e+06     10761.5         1301.36         1.00274         1.48571         1693.89         10.5429         0.000174094     0.338207        
5000       0.0505649       1.01089e+07     10788.1         1333.83         1.0027          1.47191         1703.85         14.1707         0.000176695     0.353306        
5100       0.0495314       1.02442e+07     10814.9         1373.23         1.00274         1.45716         1712.85         18.7708         0.000179286     0.370089        
5200       0.0485347       1.03838e+07     10842           1418.31         1.00286         1.44222         1721.36         24.5285         0.000181864     0.38828         
5300       0.0475721       1.0528e+07      10869.4         1467.56         1.00304         1.42775         1729.78         31.6495         0.000184431     0.407492        
5400       0.046641        1.06774e+07     10897.4         1519.15         1.00327         1.41429         1738.5          40.3584         0.000186987     0.427206        
5500       0.0457397       1.08319e+07     10925.7         1570.86         1.00354         1.4023          1747.86         50.8966         0.00018953      0.446775        
5600       0.0448665       1.09914e+07     10954.5         1620.14         1.00383         1.39214         1758.13         63.5191         0.000192062     0.465453        
5700       0.0440202       1.11557e+07     10983.5         1664.17         1.00412         1.38408         1769.54         78.4918         0.000194582     0.48243         
5800       0.0432002       1.1324e+07      11012.8         1700.11         1.00439         1.3783          1782.29         96.0827         0.000197091     0.496919        
5900       0.0424058       1.14954e+07     11042.1         1725.32         1.0046          1.37495         1796.53         116.56          0.000199589     0.50826         
6000       0.0416369       1.16687e+07     11071.2         1737.79         1.00475         1.3741          1812.34         140.178         0.000202076     0.516018        
6100       0.0408934       1.18425e+07     11099.9         1736.46         1.00482         1.37575         1829.79         167.175         0.000204554     0.520096        
6200       0.0401751       1.20155e+07     11128.1         1721.56         1.00479         1.37985         1848.84         197.759         0.00020702      0.520767        
6300       0.0394819       1.21864e+07     11155.4         1694.68         1.00468         1.38621         1869.39         232.109         0.000209477     0.518685        
6400       0.0388134       1.23541e+07     11181.8         1658.65         1.0045          1.3945          1891.23         270.358         0.000211924     0.514779        
6500       0.0381692       1.25179e+07     11207.2         1617.15         1.00426         1.40424         1914            312.593         0.00021436      0.510118        
6600       0.0375482       1.26775e+07     11231.6         1574.09         1.00399         1.41477         1937.25         358.858         0.000216786     0.505756        
6700       0.0369495       1.28328e+07     11255           1533.11         1.00371         1.42533         1960.42         409.146         0.0002192       0.502584        
6800       0.0363718       1.29843e+07     11277.4         1497.09         1.00346         1.43513         1982.96         463.401         0.0002216       0.501259        
6900       0.0358137       1.31325e+07     11299           1468            1.00324         1.44345         2004.35         521.528         0.000223987     0.50219         
7000       0.0352737       1.32782e+07     11320           1446.9          1.00308         1.44976         2024.21         583.389         0.000226362     0.505535        
7100       0.0347506       1.34221e+07     11340.4         1434.12         1.00297         1.45376         2042.31         648.804         0.000228714     0.511337        
7200       0.034243        1.35652e+07     11360.4         1429.45         1.00292         1.4554          2058.6          717.574         0.000231047     0.519478        
7300       0.0337499       1.37083e+07     11380.2         1432.42         1.00293         1.45477         2073.13         789.468         0.000233357     0.529795        
7400       0.0332701       1.3852e+07      11399.7         1442.38         1.003           1.45215         2086.08         864.239         0.000235643     0.5421          
7500       0.0328026       1.3997e+07      11419.2         1458.65         1.00312         1.44786         2097.66         941.63          0.000237894     0.556794        
7600       0.0323467       1.41439e+07     11438.6         1480.6          1.00329         1.44224         2108.1          1021.37         0.00024012      0.572627        
7700       0.0319016       1.42933e+07     11458.2         1507.68         1.00351         1.43561         2117.64         1103.21         0.000242315     0.58994         
7800       0.0314666       1.44456e+07     11477.8         1539.4          1.00377         1.42827         2126.49         1186.86         0.000244475     0.608596        
7900       0.031041        1.46013e+07     11497.6         1575.36         1.00408         1.42046         2134.82         1272.09         0.000246596     0.628475        
8000       0.0306244       1.47608e+07     11517.7         1615.21         1.00444         1.41239         2142.8          1358.65         0.000248675     0.649467        
8100       0.0302161       1.49244e+07     11538           1658.67         1.00483         1.40423         2150.57         1446.3          0.00025071      0.671482        
8200       0.0298157       1.50926e+07     11558.7         1705.48         1.00527         1.39612         2158.23         1534.85         0.000252699     0.694432        
8300       0.0294229       1.52656e+07     11579.6         1755.41         1.00574         1.38815         2165.87         1624.08         0.000254627     0.718437        
8400       0.0290372       1.54438e+07     11601           1808.26         1.00625         1.38042         2173.58         1713.81         0.000256518     0.743008        
8500       0.0286582       1.56274e+07     11622.7         1863.82         1.0068          1.37299         2181.41         1803.88         0.000258347     0.76834         
8600       0.0282856       1.58166e+07     11644.8         1921.88         1.00739         1.3659          2189.42         1894.13         0.000260125     0.794252        
8700       0.0279192       1.60118e+07     11667.4         1982.23         1.008           1.35918         2197.64         1984.43         0.000261839     0.820761        
8800       0.0275587       1.62132e+07     11690.4         2044.64         1.00866         1.35287         2206.11         2074.65         0.000263493     0.847735        
8900       0.0272038       1.64208e+07     11713.9         2108.88         1.00934         1.34697         2214.85         2164.68         0.000265087     0.875091        
9000       0.0268543       1.6635e+07      11737.8         2174.69         1.01005         1.34148         2223.89         2254.44         0.000266619     0.902736        
9100       0.02651         1.68558e+07     11762.2         2241.78         1.01079         1.33642         2233.24         2343.82         0.000268089     0.93058         
9200       0.0261707       1.70834e+07     11787.1         2309.86         1.01155         1.33176         2242.91         2432.73         0.000269499     0.958527        
9300       0.0258364       1.73178e+07     11812.4         2378.61         1.01233         1.32752         2252.91         2521.13         0.000270848     0.986476        
9400       0.0255069       1.75591e+07     11838.2         2447.69         1.01313         1.32367         2263.23         2608.93         0.000272143     1.01427         
9500       0.025182        1.78073e+07     11864.5         2516.75         1.01394         1.3202          2273.89         2696.08         0.000273375     1.04192         
9600       0.0248618       1.80624e+07     11891.2         2585.43         1.01475         1.3171          2284.88         2782.53         0.00027455      1.06927         
9700       0.024546        1.83244e+07     11918.4         2653.36         1.01557         1.31433         2296.19         2868.23         0.000275671     1.09621         
9800       0.0242348       1.85931e+07     11945.9         2720.18         1.01638         1.31189         2307.82         2953.14         0.000276743     1.12265         
9900       0.0239281       1.88684e+07     11973.9         2785.52         1.01719         1.30976         2319.75         3037.23         0.000277765     1.14849         
10000      0.0236258       1.91501e+07     12002.2         2849.04         1.01798         1.30789         2331.98         3120.47         0.000278741     1.17366         
10100      0.023328        1.94381e+07     12030.8         2910.44         1.01875         1.30628         2344.48         3202.82         0.00027968      1.19787         
10200      0.0230346       1.97321e+07     12059.8         2969.43         1.01949         1.30489         2357.25         3284.24         0.000280573     1.22148         
10300      0.0227457       2.00319e+07     12089           3025.8          1.0202          1.30371         2370.26         3364.73         0.000281428     1.24421         
10400      0.0224613       2.03372e+07     12118.5         3079.39         1.02088         1.30269         2383.5          3444.26         0.000282249     1.26602         
10500      0.0221815       2.06477e+07     12148.3         3130.1          1.02152         1.30181         2396.93         3522.83         0.000283037     1.28688         
10600      0.0219062       2.09631e+07     12178.2         3177.94         1.02212         1.30103         2410.52         3600.43         0.000283793     1.30679         
10700      0.0216355       2.12832e+07     12208.2         3223.02         1.02266         1.30034         2424.26         3677.07         0.000284518     1.32576         
10800      0.0213693       2.16076e+07     12238.4         3265.54         1.02317         1.29969         2438.1          3752.74         0.000285215     1.34381         
10900      0.0211078       2.19362e+07     12268.7         3305.82         1.02362         1.29905         2452.01         3827.46         0.000285881     1.36099         
11000      0.0208508       2.22688e+07     12299           3344.31         1.02403         1.29839         2465.95         3901.25         0.000286515     1.37736         
11100      0.0205984       2.26051e+07     12329.5         3381.54         1.0244          1.29768         2479.89         3974.12         0.000287115     1.39299         
11200      0.0203505       2.2945e+07      12360           3418.21         1.02472         1.29687         2493.78         4046.12         0.000287678     1.40797         
11300      0.0201071       2.32887e+07     12390.5         3455.06         1.02501         1.29595         2507.58         4117.29         0.0002882       1.42241         
11400      0.0198681       2.36361e+07     12421.1         3492.98         1.02527         1.29487         2521.25         4187.67         0.000288677     1.43643         
11500      0.0196333       2.39874e+07     12451.8         3532.91         1.02551         1.29362         2534.76         4257.33         0.0002891       1.45013         
11600      0.0194028       2.43428e+07     12482.6         3575.83         1.02574         1.29218         2548.07         4326.32         0.000289466     1.46364         
11700      0.0191762       2.47027e+07     12513.5         3622.79         1.02597         1.29052         2561.15         4394.71         0.000289762     1.47708         
