T(K)       rho(kg/m3)      h(J/kg)         s(J/K/kg)       Cp(J/K/kg)      p*kappa_T(1)    gamma(1)        vel(m/s)        sigma(S/m)      eta(kg/m/s)     kappa(W/m/K)    
300        3.7259          -7.17314e+06    2717.6          720.432         1               1.14179         175.056         1e-06           1.64645e-05     0.0177207       
400        2.79442         -7.09517e+06    2941.16         830.539         1               1.12072         200.264         1e-06           2.13935e-05     0.0255111       
500        2.23554         -7.00828e+06    3134.75         902.51          1               1.11004         222.832         1e-06           2.62157e-05     0.0333087       
600        1.86295         -6.91542e+06    3303.91         951.523         1               1.10378         243.411         1e-06           3.09183e-05     0.0410321       
700        1.59681         -6.81848e+06    3453.28         985.235         1               1.09987         262.449         1e-06           3.54952e-05     0.0486035       
800        1.39721         -6.71871e+06    3586.48         1009.02         1               1.09729         280.24          1e-06           3.9946e-05      0.0559934       
900        1.24197         -6.61686e+06    3706.42         1027.44         1               1.09538         296.981         1e-06           4.42736e-05     0.0632371       
1000       1.11776         -6.51324e+06    3815.57         1045.16         1               1.09365         312.798         1e-06           4.84829e-05     0.0702568       
1100       1.01608         -6.4083e+06     3917.63         1058.02         1.00005         1.0927          327.926         1e-06           5.25761e-05     0.0780357       
1200       0.931028        -6.30109e+06    4010.88         1091.69         1.00031         1.09125         342.305         1e-06           5.65653e-05     0.0892731       
1300       0.85776         -6.18768e+06    4101.61         1196.44         1.00155         1.08927         356.081         1e-06           6.04725e-05     0.115197        
1400       0.790817        -6.05496e+06    4199.83         1512.22         1.00617         1.08865         369.887         1e-06           6.43577e-05     0.186826        
1500       0.722093        -5.86816e+06    4328.37         2350.19         1.02029         1.09816         386.077         1e-06           6.83669e-05     0.37366         
1600       0.639487        -5.54738e+06    4534.72         4330.32         1.05628         1.13457         409.837         1e-06           7.2786e-05      0.78839         
1700       0.53107         -4.93056e+06    4907.42         8436.67         1.12893         1.21543         450.252         1e-06           7.79816e-05     1.49044         
1800       0.405138        -3.80548e+06    5548.99         13770.5         1.20728         1.30923         517.371         1e-06           8.38333e-05     1.98358         
1900       0.309731        -2.45558e+06    6279.44         11420.1         1.15939         1.2739          595.609         1e-06           8.88601e-05     1.32651         
2000       0.262036        -1.57167e+06    6733.74         7376.99         1.0965          1.22178         652.095         1e-06           9.24241e-05     0.881191        
2100       0.227751        -777462         7120.89         8985.29         1.11735         1.25074         701.065         1e-06           9.53596e-05     1.11129         
2200       0.1956          208789          7579.46         10241.5         1.13535         1.2804          759.316         1e-06           9.79951e-05     1.21937         
2300       0.170552        1.15903e+06     8002.18         8381.31         1.10913         1.2664          818.21          1e-06           0.000100526     0.964375        
2400       0.153697        1.87133e+06     8305.69         6045.43         1.07368         1.24256         867.738         2.71884e-06     0.000103122     0.717274        
2500       0.141601        2.42284e+06     8530.93         5275.57         1.05688         1.22874         906.116         7.31745e-06     0.000105817     0.660835        
2600       0.131241        2.97683e+06     8748.11         5996.27         1.0599          1.22637         938.949         1.74387e-05     0.000108579     0.775326        
2700       0.121205        3.64064e+06     8998.49         7245.95         1.07296         1.23841         975.845         3.90582e-05     0.000111391     0.940712        
2800       0.111637        4.39418e+06     9272.49         7585.08         1.07868         1.2509          1019.2          9.08476e-05     0.000114253     0.983722        
2900       0.103388        5.11323e+06     9524.92         6642.47         1.07018         1.25515         1065.08         0.000227938     0.000117135     0.874113        
3000       0.0967598       5.70989e+06     9727.32         5300.96         1.05607         1.25896         1109.97         0.000572796     0.000119992     0.7227          
3100       0.0914479       6.18308e+06     9882.58         4227.66         1.04408         1.26814         1152.47         0.00136564      0.000122795     0.604306        
3200       0.0870424       6.56774e+06     10004.8         3517.84         1.03581         1.28132         1192.13         0.00305039      0.000125538     0.48014         
3300       0.083254        6.89472e+06     10105.4         3051.18         1.03022         1.29603         1229.25         0.00639855      0.000128236     0.436292        
3400       0.0799151       7.18214e+06     10191.2         2711.45         1.02606         1.3116          1264.74         0.0126747       0.000130896     0.403392        
3500       0.0769305       7.43902e+06     10265.7         2433.35         1.02253         1.32848         1299.54         0.023862        0.000133531     0.376147        
3600       0.0742408       7.66998e+06     10330.8         2190.92         1.01931         1.34711         1334.22         0.0429914       0.00013615      0.352663        
3700       0.0718025       7.87821e+06     10387.9         1978.85         1.01632         1.3674          1368.88         0.0746528       0.000138764     0.332599        
3800       0.0695792       8.06682e+06     10438.2         1798.87         1.0136          1.38854         1403.16         0.125777        0.000141376     0.316483        
3900       0.0675393       8.23912e+06     10482.9         1652.7          1.01122         1.40911         1436.39         0.206738        0.000143988     0.304656        
4000       0.0656551       8.39847e+06     10523.3         1539.75         1.0092          1.4274          1467.74         0.332724        0.000146598     0.297147        
4100       0.0639034       8.54809e+06     10560.2         1457.46         1.00756         1.44179         1496.42         0.52529         0.000149206     0.293633        
4200       0.0622646       8.69087e+06     10594.7         1402.35         1.00624         1.45112         1521.87         0.81389         0.000151808     0.294181        
4300       0.0607229       8.82935e+06     10627.2         1370.91         1.00523         1.45481         1543.81         1.23733         0.000154406     0.298205        
4400       0.0592652       8.96574e+06     10658.6         1360.19         1.00448         1.45289         1562.24         1.84503         0.000156991     0.305911        
4500       0.0578807       9.102e+06       10689.2         1367.97         1.00395         1.44585         1577.39         2.69822         0.000159572     0.317047        
4600       0.0565607       9.2399e+06      10719.5         1392.75         1.00361         1.4345          1589.68         3.87109         0.00016214      0.332195        
4700       0.0552974       9.38109e+06     10749.9         1433.62         1.00344         1.4198          1599.61         5.45195         0.000164694     0.350712        
4800       0.0540846       9.52715e+06     10780.6         1490.18         1.00344         1.40277         1607.72         7.54444         0.00016724      0.373059        
4900       0.0529165       9.67964e+06     10812.1         1562.29         1.00358         1.38439         1614.57         10.269          0.000169775     0.399521        
5000       0.0517883       9.84012e+06     10844.5         1649.92         1.00387         1.36556         1620.69         13.7638         0.000172297     0.430296        
5100       0.0506955       1.00101e+07     10878.2         1753.05         1.0043          1.34701         1626.55         18.1861         0.000174806     0.465529        
5200       0.0496342       1.01912e+07     10913.3         1871.42         1.00488         1.32935         1632.57         23.7127         0.000177302     0.505257        
5300       0.048601        1.03849e+07     10950.2         2004.48         1.00559         1.31301         1639.08         30.5403         0.000179786     0.549376        
5400       0.0475929       1.05926e+07     10989           2151.15         1.00644         1.29827         1646.33         38.8858         0.000182256     0.597571        
5500       0.0466073       1.08155e+07     11029.9         2309.73         1.00742         1.28532         1654.53         48.9853         0.000184711     0.649289        
5600       0.0456421       1.10548e+07     11073           2477.68         1.00852         1.27422         1663.78         61.0907         0.000187153     0.703687        
5700       0.0446958       1.13113e+07     11118.4         2651.59         1.00972         1.26495         1674.19         75.47           0.00018958      0.759604        
5800       0.0437673       1.15852e+07     11166.1         2827.02         1.01098         1.25747         1685.78         92.4006         0.000191992     0.81555         
5900       0.0428563       1.18766e+07     11215.9         2998.56         1.01229         1.25168         1698.58         112.164         0.000194391     0.869752        
6000       0.0419628       1.21846e+07     11267.6         3159.87         1.01358         1.24746         1712.59         135.04          0.000196774     0.920192        
6100       0.0410875       1.2508e+07      11321.1         3304            1.01481         1.24471         1727.77         161.299         0.000199143     0.964756        
6200       0.0402317       1.28446e+07     11375.8         3423.76         1.01593         1.24329         1744.1          191.185         0.000201497     1.00137         
6300       0.0393971       1.31917e+07     11431.3         3512.32         1.01686         1.24311         1761.54         224.917         0.000203838     1.02824         
6400       0.0385857       1.35458e+07     11487.1         3563.94         1.01755         1.24408         1780.06         262.669         0.000206166     1.04405         
6500       0.0377995       1.39031e+07     11542.5         3574.81         1.01796         1.24616         1799.62         304.555         0.00020848      1.0482          
6600       0.0370406       1.42594e+07     11596.9         3543.73         1.01806         1.24932         1820.17         350.635         0.000210784     1.04092         
6700       0.0363109       1.46105e+07     11649.7         3472.55         1.01784         1.25357         1841.69         400.902         0.000213076     1.02333         
6800       0.0356115       1.49527e+07     11700.4         3366.23         1.01732         1.25893         1864.14         455.281         0.000215357     0.99732         
6900       0.0349431       1.52828e+07     11748.6         3232.35         1.01655         1.26542         1887.44         513.64          0.000217628     0.965341        
7000       0.0343057       1.55986e+07     11794           3080.18         1.01558         1.27303         1911.52         575.794         0.000219879     0.930883        
7100       0.0336986       1.58986e+07     11836.6         2919.55         1.01449         1.28168         1936.24         641.515         0.000222125     0.895182        
7200       0.0331205       1.61825e+07     11876.3         2759.69         1.01335         1.2912          1961.41         710.545         0.000224357     0.861176        
7300       0.0325697       1.64508e+07     11913.3         2608.38         1.01222         1.30129         1986.75         782.615         0.000226574     0.830676        
7400       0.032044        1.67047e+07     11947.9         2471.35         1.01116         1.31157         2011.93         857.443         0.000228774     0.804897        
7500       0.0315414       1.69457e+07     11980.2         2352.21         1.01021         1.32159         2036.59         934.746         0.000230955     0.784516        
7600       0.0310596       1.71758e+07     12010.7         2252.78         1.00938         1.33087         2060.36         1014.25         0.000233113     0.769772        
7700       0.0305965       1.73969e+07     12039.6         2173.37         1.00869         1.33898         2082.91         1095.69         0.000235246     0.760563        
7800       0.0301503       1.76111e+07     12067.2         2113.25         1.00815         1.34559         2104.01         1178.8          0.000237351     0.756576        
7900       0.029719        1.78202e+07     12093.9         2071.05         1.00775         1.35053         2123.53         1263.35         0.000239424     0.757366        
8000       0.0293013       1.80258e+07     12119.7         2045.07         1.00749         1.35374         2141.43         1349.1          0.000241463     0.762437        
8100       0.0288957       1.82297e+07     12145.1         2033.53         1.00735         1.35529         2157.8          1435.85         0.000243466     0.771289        
8200       0.028501        1.8433e+07      12170           2034.67         1.00732         1.35536         2172.77         1523.4          0.000245433     0.78341         
8300       0.0281163       1.8637e+07      12194.7         2046.86         1.00739         1.35416         2186.54         1611.57         0.000247342     0.798646        
8400       0.0277407       1.88427e+07     12219.4         2068.67         1.00755         1.35194         2199.3          1700.19         0.000249214     0.816194        
8500       0.0273734       1.9051e+07      12244           2098.8          1.0078          1.34893         2211.27         1789.11         0.000251037     0.835872        
8600       0.0270138       1.92627e+07     12268.8         2136.14         1.00812         1.34535         2222.64         1878.21         0.000252811     0.857381        
8700       0.0266613       1.94784e+07     12293.7         2179.72         1.00851         1.3414          2233.56         1967.34         0.000254531     0.880446        
8800       0.0263154       1.96988e+07     12318.9         2228.72         1.00896         1.33723         2244.19         2056.4          0.000256198     0.904834        
8900       0.0259758       1.99243e+07     12344.4         2282.39         1.00947         1.33297         2254.66         2145.31         0.000257816     0.930309        
9000       0.025642        2.01554e+07     12370.2         2340.1          1.01002         1.32872         2265.04         2233.97         0.000259377     0.956676        
9100       0.0253138       2.03924e+07     12396.4         2401.28         1.01061         1.32456         2275.44         2322.29         0.000260875     0.983825        
9200       0.0249908       2.06357e+07     12423           2465.42         1.01124         1.32053         2285.9          2410.22         0.000262317     1.01156         
9300       0.0246729       2.08856e+07     12450           2532.05         1.01191         1.31669         2296.47         2497.7          0.000263701     1.03972         
9400       0.0243598       2.11422e+07     12477.5         2600.76         1.0126          1.31306         2307.2          2584.66         0.000265028     1.06818         
9500       0.0240514       2.14058e+07     12505.3         2671.17         1.01332         1.30964         2318.1          2671.07         0.000266298     1.09681         
9600       0.0237474       2.16765e+07     12533.7         2742.93         1.01406         1.30644         2329.19         2756.89         0.000267512     1.12549         
9700       0.0234479       2.19544e+07     12562.5         2815.74         1.01481         1.30347         2340.49         2842.08         0.000268676     1.154           
9800       0.0231527       2.22397e+07     12591.7         2889.33         1.01557         1.30071         2351.98         2926.61         0.00026978      1.18246         
9900       0.0228617       2.25323e+07     12621.5         2963.48         1.01634         1.29815         2363.68         3010.47         0.000270832     1.21068         
10000      0.0225748       2.28324e+07     12651.6         3038            1.01711         1.29577         2375.57         3093.64         0.000271829     1.23857         
10100      0.022292        2.31399e+07     12682.2         3112.79         1.01788         1.29356         2387.66         3176.11         0.000272776     1.26608         
10200      0.0220131       2.3455e+07      12713.2         3187.76         1.01864         1.2915          2399.91         3257.87         0.000273672     1.29315         
10300      0.0217382       2.37775e+07     12744.7         3262.94         1.0194          1.28956         2412.33         3338.93         0.000274518     1.31974         
10400      0.0214673       2.41075e+07     12776.6         3338.38         1.02015         1.28773         2424.89         3419.3          0.000275313     1.34585         
10500      0.0212001       2.44452e+07     12808.9         3414.23         1.02088         1.28598         2437.58         3498.97         0.00027606      1.37145         
10600      0.0209368       2.47904e+07     12841.6         3490.71         1.02161         1.2843          2450.38         3577.96         0.000276754     1.39656         
10700      0.0206772       2.51433e+07     12874.8         3568.12         1.02233         1.28266         2463.27         3656.31         0.000277396     1.4212          
10800      0.0204214       2.55041e+07     12908.3         3646.8          1.02304         1.28105         2476.24         3734.03         0.000277986     1.44542         
10900      0.0201691       2.58728e+07     12942.3         3727.17         1.02375         1.27945         2489.27         3811.17         0.00027852      1.46926         
11000      0.0199204       2.62496e+07     12976.7         3809.71         1.02445         1.27786         2502.34         3887.76         0.000278994     1.49279         
11100      0.0196752       2.66348e+07     13011.6         3894.92         1.02516         1.27627         2515.45         3963.86         0.000279407     1.51609         
11200      0.0194333       2.70287e+07     13046.9         3983.32         1.02587         1.27467         2528.6          4039.5          0.000279753     1.53922         
11300      0.0191947       2.74316e+07     13082.7         4075.44         1.02659         1.27306         2541.77         4114.74         0.000280029     1.56229         
11400      0.0189593       2.78439e+07     13119.1         4171.81         1.02732         1.27145         2554.97         4189.63         0.00028023      1.58538         
11500      0.0187269       2.82661e+07     13155.9         4272.9          1.02808         1.26985         2568.2          4264.23         0.000280348     1.60858         
11600      0.0184975       2.86987e+07     13193.4         4379.16         1.02887         1.26827         2581.48         4338.58         0.000280381     1.63198         
11700      0.0182708       2.91421e+07     13231.4         4490.98         1.02969         1.26671         2594.82         4412.74         0.000280319     1.65565         
