T(K)       rho(kg/m3)      h(J/kg)         s(J/K/kg)       Cp(J/K/kg)      p*kappa_T(1)    gamma(1)        vel(m/s)        sigma(S/m)      eta(kg/m/s)     kappa(W/m/K)    
300        4.19914         -7.5371e+06     2503.66         704.907         1               1.1269          163.819         1e-06           1.59964e-05     0.0164881       
400        3.14935         -7.4604e+06     2723.53         820.15          1               1.10716         187.497         1e-06           2.07611e-05     0.0241135       
500        2.51948         -7.37439e+06    2915.15         895.027         1               1.09732         208.695         1e-06           2.54523e-05     0.0317785       
600        2.09957         -7.2822e+06     3083.09         945.528         1               1.09165         228.022         1e-06           3.00638e-05     0.0393865       
700        1.79963         -7.18582e+06    3231.59         979.782         1               1.08816         245.898         1e-06           3.45894e-05     0.0468509       
800        1.57468         -7.08659e+06    3364.06         1003.53         1               1.0859          262.602         1e-06           3.90253e-05     0.0541416       
900        1.39971         -6.9853e+06     3483.34         1021.67         1               1.08425         278.32          1e-06           4.33694e-05     0.0613024       
1000       1.25973         -6.88228e+06    3591.87         1039.16         1               1.08274         293.172         1e-06           4.76212e-05     0.06826         
1100       1.14513         -6.77798e+06    3693.41         1051.19         1.00005         1.08199         307.379         1e-06           5.1778e-05      0.0759025       
1200       1.04925         -6.67153e+06    3786.01         1083.1          1.00033         1.08094         320.914         1e-06           5.58476e-05     0.0866479       
1300       0.966565        -6.55921e+06    3875.86         1182.01         1.00164         1.07992         333.983         1e-06           5.98501e-05     0.110586        
1400       0.890741        -6.42866e+06    3972.48         1480.35         1.00654         1.08126         347.275         1e-06           6.38488e-05     0.175678        
1500       0.812224        -6.24692e+06    4097.56         2275.32         1.02154         1.09359         363.045         1e-06           6.80047e-05     0.345236        
1600       0.716614        -5.93728e+06    4296.74         4177.98         1.06006         1.13394         386.356         1e-06           7.26407e-05     0.726625        
1700       0.589512        -5.33834e+06    4658.6          8265.3          1.13948         1.22267         426.633         1e-06           7.81926e-05     1.40076         
1800       0.440213        -4.21014e+06    5301.8          14171.6         1.23169         1.33202         495.648         1e-06           8.45768e-05     1.96623         
1900       0.326342        -2.77275e+06    6079.38         12515.3         1.18531         1.29905         579.511         1e-06           9.00564e-05     1.39241         
2000       0.271448        -1.81424e+06    6572.11         7741.15         1.10646         1.23047         640.066         1e-06           9.37777e-05     0.88039         
2100       0.234487        -999452         6969.34         9161.51         1.12392         1.25654         690.497         1e-06           9.67452e-05     1.08428         
2200       0.200039        17850           7442.3          10706.4         1.14546         1.2901          750.35          1e-06           9.93568e-05     1.22137         
2300       0.173052        1.02262e+06     7889.24         8940.88         1.11934         1.27602         811.631         1e-06           0.000101838     0.986377        
2400       0.155047        1.78262e+06     8213.08         6421.95         1.08055         1.24851         863.258         2.66468e-06     0.000104399     0.730734        
2500       0.14238         2.36251e+06     8449.93         5481.65         1.0609          1.23241         903.265         7.22104e-06     0.000107083     0.659934        
2600       0.13172         2.93289e+06     8673.55         6137.37         1.06255         1.22902         937.087         1.7281e-05      0.000109844     0.763495        
2700       0.121462        3.6127e+06      8929.96         7444.94         1.07579         1.24103         974.558         3.86534e-05     0.000112654     0.929213        
2800       0.111652        4.3922e+06      9213.39         7901.83         1.08261         1.2543          1018.66         8.91614e-05     0.000115517     0.984306        
2900       0.103159        5.14552e+06     9477.84         6990.54         1.07445         1.25845         1065.54         0.000222234     0.000118405     0.883661        
3000       0.0963451       5.77435e+06     9691.16         5587.56         1.05971         1.26117         1111.42         0.000558289     0.000121276     0.732954        
3100       0.0909161       6.27218e+06     9854.5          4435.83         1.04687         1.26933         1154.84         0.00133429      0.000124098     0.61207         
3200       0.0864422       6.67455e+06     9982.31         3667.79         1.03795         1.28205         1195.37         0.00298955      0.000126862     0.499374        
3300       0.0826144       7.01455e+06     10087           3164.48         1.03194         1.2967          1233.29         0.00629084      0.000129581     0.451761        
3400       0.0792523       7.31206e+06     10175.8         2801.59         1.02751         1.31239         1269.5          0.0125002       0.000132261     0.416326        
3500       0.0762543       7.57709e+06     10252.7         2506.94         1.0238          1.32951         1304.99         0.0236024       0.000134916     0.387156        
3600       0.0735577       7.8147e+06      10319.6         2250.64         1.02042         1.3486          1340.41         0.0426363       0.000137555     0.361975        
3700       0.0711172       8.02826e+06     10378.1         2025.7          1.01729         1.36968         1375.94         0.0742032       0.00014019      0.340259        
3800       0.0688957       8.22093e+06     10429.5         1833.49         1.01443         1.39209         1411.32         0.125252        0.000142824     0.322516        
3900       0.0668606       8.39611e+06     10475           1675.79         1.01192         1.4145          1445.92         0.206185        0.000145459     0.309097        
4000       0.064984        8.55723e+06     10515.8         1552.13         1.00978         1.43521         1478.91         0.332269        0.000148095     0.300027        
4100       0.0632419       8.70758e+06     10553           1459.9          1.00802         1.4525          1509.46         0.525225        0.000150729     0.295089        
4200       0.0616145       8.85013e+06     10587.3         1395.39         1.0066          1.46501         1536.91         0.814833        0.000153359     0.293877        
4300       0.0600855       8.98746e+06     10619.6         1354.8          1.0055          1.47196         1560.89         1.24046         0.000155986     0.29615         
4400       0.0586417       9.12178e+06     10650.5         1334.78         1.00466         1.47317         1581.3          1.85238         0.0001586       0.301924        
4500       0.0572722       9.25501e+06     10680.5         1332.72         1.00404         1.46898         1598.31         2.71303         0.000161211     0.310831        
4600       0.0559681       9.38886e+06     10709.9         1346.72         1.00362         1.46008         1612.25         3.89817         0.000163809     0.323369        
4700       0.0547219       9.52485e+06     10739.1         1375.49         1.00337         1.44735         1623.59         5.49813         0.000166393     0.338789        
4800       0.0535271       9.66442e+06     10768.5         1418.24         1.00328         1.43179         1632.84         7.61896         0.00016897      0.357446        
4900       0.0523784       9.80894e+06     10798.3         1474.45         1.00332         1.41438         1640.54         10.384          0.000171536     0.37952         
5000       0.0512708       9.95974e+06     10828.8         1543.72         1.00349         1.39604         1647.24         13.9346         0.00017409      0.405097        
5100       0.0502003       1.01181e+07     10860.1         1625.63         1.00379         1.37759         1653.43         18.4318         0.000176631     0.434201        
5200       0.049163        1.02853e+07     10892.6         1719.55         1.00421         1.35969         1659.54         24.0562         0.000179159     0.466754        
5300       0.0481559       1.04624e+07     10926.3         1824.54         1.00474         1.34286         1665.96         31.0088         0.000181675     0.502534        
5400       0.047176        1.06505e+07     10961.5         1939.18         1.00538         1.32748         1672.97         39.5106         0.000184178     0.541123        
5500       0.0462211       1.08505e+07     10998.2         2061.43         1.00611         1.31379         1680.81         49.8011         0.000186666     0.581885        
5600       0.0452894       1.1063e+07      11036.5         2188.56         1.00693         1.30194         1689.65         62.1347         0.000189142     0.623935        
5700       0.0443793       1.12882e+07     11076.3         2317.04         1.00781         1.29198         1699.61         76.7809         0.000191604     0.666127        
5800       0.04349         1.15263e+07     11117.7         2442.59         1.00872         1.28391         1710.76         94.0153         0.000194051     0.707073        
5900       0.0426212       1.17765e+07     11160.5         2560.22         1.00962         1.27768         1723.13         114.117         0.000196486     0.745216        
6000       0.0417729       1.20379e+07     11204.4         2664.46         1.01049         1.27324         1736.77         137.356         0.000198906     0.778901        
6100       0.0409458       1.23088e+07     11249.2         2749.75         1.01127         1.27051         1751.67         163.994         0.000201315     0.806547        
6200       0.0401408       1.2587e+07      11294.4         2810.91         1.01191         1.26941         1767.82         194.26          0.00020371      0.826787        
6300       0.0393591       1.287e+07       11339.7         2843.74         1.01237         1.26991         1785.22         228.354         0.000206093     0.838686        
6400       0.0386021       1.31547e+07     11384.6         2845.7          1.01263         1.27196         1803.87         266.432         0.000208464     0.84189         
6500       0.0378712       1.34381e+07     11428.5         2816.43         1.01266         1.27554         1823.73         308.59          0.000210824     0.836733        
6600       0.0371674       1.3717e+07      11471.1         2758.05         1.01246         1.28065         1844.78         354.873         0.000213175     0.824246        
6700       0.0364914       1.39889e+07     11512           2675.07         1.01205         1.28725         1866.96         405.267         0.000215514     0.806047        
6800       0.0358435       1.42514e+07     11550.9         2573.92         1.01147         1.29528         1890.16         459.693         0.000217842     0.784138        
6900       0.0352233       1.45033e+07     11587.6         2462.08         1.01077         1.30459         1914.24         518.033         0.00022016      0.76065         
7000       0.0346299       1.47438e+07     11622.2         2347.16         1.00999         1.31493         1938.95         580.113         0.000222466     0.737572        
7100       0.034062        1.49729e+07     11654.7         2235.94         1.00921         1.32592         1963.96         645.726         0.00022475      0.717261        
7200       0.033518        1.51913e+07     11685.3         2133.85         1.00845         1.33706         1988.88         714.642         0.000227025     0.699681        
7300       0.0329961       1.54001e+07     11714.1         2044.63         1.00776         1.34778         2013.26         786.61          0.000229282     0.68618         
7400       0.0324943       1.56007e+07     11741.4         1970.41         1.00716         1.35755         2036.68         861.369         0.000231519     0.677109        
7500       0.0320109       1.57947e+07     11767.4         1911.91         1.00668         1.36586         2058.78         938.653         0.000233733     0.672504        
7600       0.0315441       1.59836e+07     11792.4         1868.91         1.0063          1.37239         2079.29         1018.2          0.000235922     0.672185        
7700       0.0310923       1.61689e+07     11816.7         1840.51         1.00604         1.37694         2098.09         1099.73         0.000238082     0.675836        
7800       0.030654        1.63521e+07     11840.3         1825.46         1.00588         1.37952         2115.18         1183.01         0.000240212     0.683085        
7900       0.0302281       1.65344e+07     11863.5         1822.38         1.00583         1.38025         2130.65         1267.77         0.000242307     0.693536        
8000       0.0298133       1.6717e+07      11886.5         1829.89         1.00587         1.37935         2144.68         1353.81         0.000244364     0.706805        
8100       0.0294088       1.69007e+07     11909.3         1846.69         1.00599         1.37709         2157.47         1440.87         0.000246382     0.722544        
8200       0.0290137       1.70866e+07     11932.1         1871.63         1.0062          1.37376         2169.27         1528.79         0.000248356     0.740435        
8300       0.0286273       1.72753e+07     11955           1903.69         1.00647         1.36963         2180.27         1617.35         0.000250281     0.760366        
8400       0.0282489       1.74675e+07     11978           1941.96         1.00681         1.36493         2190.69         1706.39         0.000252165     0.78178         
8500       0.027878        1.76639e+07     12001.3         1985.68         1.00721         1.35989         2200.7          1795.75         0.000253992     0.804627        
8600       0.0275141       1.78648e+07     12024.8         2034.19         1.00766         1.35466         2210.44         1885.29         0.000255766     0.828692        
8700       0.0271568       1.80708e+07     12048.6         2086.89         1.00817         1.34939         2220.05         1974.86         0.000257486     0.853801        
8800       0.0268057       1.82823e+07     12072.7         2143.25         1.00872         1.34418         2229.62         2064.38         0.00025915      0.879797        
8900       0.0264605       1.84996e+07     12097.3         2202.81         1.00931         1.33912         2239.22         2153.72         0.000260757     0.906531        
9000       0.026121        1.8723e+07      12122.3         2265.13         1.00994         1.33426         2248.94         2242.79         0.000262306     0.933863        
9100       0.0257867       1.89527e+07     12147.6         2329.79         1.01061         1.32964         2258.8          2331.52         0.000263796     0.961664        
9200       0.0254576       1.9189e+07      12173.5         2396.41         1.0113          1.32529         2268.86         2419.83         0.000265234     0.989763        
9300       0.0251334       1.9432e+07      12199.7         2464.62         1.01202         1.32123         2279.13         2507.65         0.000266607     1.01813         
9400       0.024814        1.9682e+07      12226.5         2534.05         1.01276         1.31747         2289.64         2594.93         0.000267928     1.04652         
9500       0.0244993       1.99389e+07     12253.6         2604.35         1.01352         1.314           2300.4          2681.61         0.000269187     1.07499         
9600       0.0241891       2.02028e+07     12281.3         2675.19         1.01429         1.31081         2311.42         2767.65         0.000270389     1.10335         
9700       0.0238833       2.04739e+07     12309.4         2746.26         1.01508         1.3079          2322.69         2853.02         0.000271537     1.13148         
9800       0.0235819       2.07521e+07     12337.9         2817.26         1.01586         1.30525         2334.21         2937.67         0.000272634     1.15931         
9900       0.0232847       2.10374e+07     12366.9         2887.91         1.01665         1.30284         2345.98         3021.58         0.00027368      1.18674         
10000      0.0229918       2.13297e+07     12396.2         2958            1.01743         1.30065         2357.99         3104.73         0.000274677     1.21368         
10100      0.0227032       2.16289e+07     12426           3027.33         1.0182          1.29865         2370.22         3187.11         0.000275625     1.24008         
10200      0.0224187       2.19351e+07     12456.2         3095.76         1.01895         1.29684         2382.65         3268.69         0.00027653      1.26588         
10300      0.0221383       2.2248e+07      12486.7         3163.23         1.01969         1.29517         2395.28         3349.48         0.000277389     1.29104         
10400      0.0218621       2.25677e+07     12517.6         3229.72         1.02041         1.29362         2408.07         3429.46         0.000278205     1.31553         
10500      0.02159         2.2894e+07      12548.8         3295.31         1.02111         1.29218         2421.02         3508.63         0.00027898      1.33933         
10600      0.021322        2.32267e+07     12580.4         3360.15         1.02179         1.2908          2434.08         3587            0.000279712     1.36245         
10700      0.0210581       2.3566e+07      12612.2         3424.47         1.02244         1.28947         2447.24         3664.61         0.000280401     1.38492         
10800      0.0207982       2.39116e+07     12644.4         3488.6          1.02307         1.28816         2460.48         3741.45         0.000281049     1.40676         
10900      0.0205423       2.42637e+07     12676.8         3552.95         1.02367         1.28685         2473.76         3817.58         0.000281651     1.42803         
11000      0.0202903       2.46222e+07     12709.6         3617.99         1.02426         1.28552         2487.08         3893.01         0.000282206     1.44879         
11100      0.0200423       2.49873e+07     12742.6         3684.29         1.02484         1.28415         2500.39         3967.79         0.000282711     1.46913         
11200      0.019798        2.53592e+07     12776           3752.44         1.0254          1.28273         2513.69         4041.96         0.000283163     1.48911         
11300      0.0195574       2.57379e+07     12809.6         3823.09         1.02595         1.28125         2526.96         4115.57         0.000283556     1.50885         
11400      0.0193205       2.61239e+07     12843.6         3896.92         1.02651         1.2797          2540.18         4188.68         0.000283887     1.52844         
11500      0.019087        2.65174e+07     12878           3974.57         1.02707         1.27809         2553.36         4261.34         0.000284147     1.54799         
11600      0.0188569       2.69189e+07     12912.8         4056.72         1.02765         1.27642         2566.48         4333.61         0.000284333     1.56759         
11700      0.0186301       2.73289e+07     12948           4143.96         1.02825         1.27469         2579.56         4405.57         0.000284435     1.58735         
