T(K)       rho(kg/m3)      h(J/kg)         s(J/K/kg)       Cp(J/K/kg)      p*kappa_T(1)    gamma(1)        vel(m/s)        sigma(S/m)      eta(kg/m/s)     kappa(W/m/K)    
300        3.25266         -6.70327e+06    2989.62         740.474         1               1.16063         188.898         1e-06           1.69611e-05     0.0191319       
400        2.43949         -6.62366e+06    3217.95         843.95          1               1.13821         216.004         1e-06           2.20539e-05     0.0270918       
500        1.9516          -6.53563e+06    3414.09         912.171         1               1.12657         240.261         1e-06           2.69954e-05     0.0350152       
600        1.62633         -6.44192e+06    3584.82         959.263         1               1.11961         262.379         1e-06           3.17691e-05     0.0428406       
700        1.394           -6.34425e+06    3735.31         992.274         1               1.11517         282.84          1e-06           3.63721e-05     0.0505033       
800        1.21975         -6.24377e+06    3869.45         1016.1          1               1.11217         301.961         1e-06           4.08099e-05     0.0579768       
900        1.08422         -6.1412e+06     3990.24         1034.88         1               1.10991         319.953         1e-06           4.50921e-05     0.0652874       
1000       0.975791        -6.03682e+06    4100.19         1052.91         1               1.10787         336.949         1e-06           4.92301e-05     0.0723531       
1100       0.88703         -5.93104e+06    4202.92         1066.79         1.00004         1.10663         353.202         1e-06           5.32322e-05     0.0802854       
1200       0.812802        -5.82288e+06    4297.01         1102.53         1.00029         1.10462         368.597         1e-06           5.71147e-05     0.0921651       
1300       0.748936        -5.70811e+06    4388.82         1213.97         1.00145         1.10127         383.186         1e-06           6.09017e-05     0.120761        
1400       0.690826        -5.57281e+06    4488.94         1549.58         1.00576         1.09791         397.514         1e-06           6.46496e-05     0.201203        
1500       0.63176         -5.38018e+06    4621.49         2435.48         1.01888         1.1037          414.085         1e-06           6.8488e-05      0.411126        
1600       0.561854        -5.047e+06      4835.81         4495.62         1.05201         1.13534         438.269         1e-06           7.2665e-05      0.86887         
1700       0.471608        -4.41232e+06    5219.33         8578.61         1.117           1.20715         478.699         1e-06           7.74804e-05     1.59983         
1800       0.368535        -3.30167e+06    5852.86         13147.9         1.17991         1.28369         543.334         1e-06           8.27888e-05     1.98715         
1900       0.291447        -2.06495e+06    6522.31         10123.6         1.13145         1.24735         615.03          1e-06           8.7361e-05      1.2445          
2000       0.251054        -1.2654e+06     6933.12         6979.65         1.08581         1.21282         667.016         1e-06           9.07594e-05     0.889249        
2100       0.219747        -495939         7308.18         8735.31         1.10925         1.2437          714.301         1e-06           9.36587e-05     1.14598         
2200       0.190321        447250          7746.78         9620.05         1.12276         1.2685          770.475         1e-06           9.63187e-05     1.21248         
2300       0.167566        1.32722e+06     8138.27         7679.84         1.09673         1.25507         826.403         1e-06           9.8899e-05      0.934327        
2400       0.152066        1.98063e+06     8416.68         5586.54         1.06542         1.23574         873.347         2.78901e-06     0.000101526     0.700595        
2500       0.140649        2.49769e+06     8627.83         5024.94         1.05203         1.22442         909.67          7.44055e-06     0.000104229     0.663681        
2600       0.130652        3.03139e+06     8837.05         5816.18         1.05663         1.22317         941.289         1.76405e-05     0.000106987     0.792367        
2700       0.120898        3.67404e+06     9079.45         6977.66         1.06926         1.23512         977.468         3.96248e-05     0.000109795     0.955569        
2800       0.111649        4.39285e+06     9340.84         7166.89         1.07353         1.24662         1019.85         9.327e-05       0.000112653     0.981421        
2900       0.103714        5.06738e+06     9577.64         6196.26         1.06469         1.25117         1064.46         0.000235979     0.000115521     0.8605          
3000       0.0973226       5.62316e+06     9766.18         4939.53         1.05145         1.25645         1108.08         0.000592987     0.000118354     0.708834        
3100       0.0921595       6.06536e+06     9911.27         3966.36         1.04054         1.26688         1149.39         0.00140895      0.000121126     0.514239        
3200       0.087841        6.42779e+06     10026.4         3329.11         1.03309         1.28057         1187.91         0.00313395      0.000123842     0.455917        
3300       0.0841032       6.73835e+06     10122           2907.79         1.02802         1.29529         1223.99         0.00654556      0.00012651      0.416701        
3400       0.0807942       7.01296e+06     10204           2596.81         1.02419         1.31066         1258.54         0.0129114       0.000129142     0.386936        
3500       0.077827        7.25946e+06     10275.5         2339.54         1.0209          1.32718         1292.44         0.0242111       0.00013175      0.362105        
3600       0.0751465       7.48193e+06     10338.1         2114.75         1.01787         1.3452          1326.15         0.0434658       0.000134342     0.340763        
3700       0.0727111       7.68338e+06     10393.4         1919.05         1.01506         1.36445         1359.67         0.0752497       0.000136928     0.322778        
3800       0.0704856       7.86679e+06     10442.3         1754.57         1.01252         1.38395         1392.54         0.126473        0.00013951      0.308688        
3900       0.0684391       8.03538e+06     10486.1         1622.82         1.01031         1.40223         1424.07         0.207466        0.000142091     0.298812        
4000       0.066545        8.19242e+06     10525.8         1523.09         1.00846         1.41765         1453.44         0.333321        0.000144665     0.293189        
4100       0.0647806       8.34099e+06     10562.5         1452.86         1.00696         1.42878         1479.97         0.525366        0.00014724      0.291521        
4200       0.063127        8.48387e+06     10597           1408.89         1.00578         1.43471         1503.22         0.812619        0.000149806     0.293917        
4300       0.0615687       8.62354e+06     10629.8         1388.09         1.00488         1.43514         1523.03         1.23315         0.000152367     0.299914        
4400       0.0600929       8.76217e+06     10661.7         1387.96         1.00423         1.43029         1539.51         1.83525         0.000154916     0.30975         
4500       0.0586893       8.90176e+06     10693.1         1406.74         1.0038          1.42081         1552.98         2.67859         0.000157456     0.323331        
4600       0.0573489       9.04412e+06     10724.4         1443.38         1.00356         1.40757         1563.87         3.83527         0.000159985     0.341309        
4700       0.0560642       9.19101e+06     10755.9         1497.45         1.00349         1.39157         1572.73         5.39102         0.000162504     0.363103        
4800       0.0548286       9.34419e+06     10788.2         1568.95         1.00359         1.37381         1580.09         7.44632         0.000165007     0.389475        
4900       0.0536365       9.5054e+06      10821.4         1658.2          1.00386         1.35522         1586.5          10.1179         0.000167502     0.420641        
5000       0.0524826       9.67643e+06     10856           1765.59         1.00428         1.33662         1592.46         13.5394         0.000169985     0.456989        
5100       0.0513625       9.85913e+06     10892.2         1891.53         1.00486         1.31867         1598.43         17.8632         0.000172454     0.498793        
5200       0.0502719       1.00554e+07     10930.3         2036.22         1.00561         1.30188         1604.75         23.2607         0.000174911     0.546227        
5300       0.0492072       1.0267e+07      10970.6         2199.56         1.00652         1.28659         1611.74         29.9227         0.000177355     0.599322        
5400       0.0481651       1.04959e+07     11013.3         2380.93         1.00761         1.27302         1619.59         38.0599         0.000179785     0.657896        
5500       0.0471427       1.07437e+07     11058.8         2579.04         1.00886         1.26127         1628.47         47.9026         0.0001822       0.721512        
5600       0.0461378       1.10122e+07     11107.2         2791.74         1.01027         1.25135         1638.48         59.6982         0.000184602     0.789418        
5700       0.0451487       1.13025e+07     11158.5         3015.9          1.01183         1.24323         1649.68         73.7103         0.000186989     0.860499        
5800       0.044174        1.16156e+07     11213           3247.2          1.0135          1.23679         1662.08         90.2153         0.000189361     0.933238        
5900       0.0432132       1.1952e+07      11270.5         3480.09         1.01526         1.23193         1675.7          109.497         0.000191718     1.00574         
6000       0.0422665       1.23114e+07     11330.9         3707.75         1.01705         1.22849         1690.51         131.839         0.000194058     1.07573         
6100       0.0413346       1.26931e+07     11394           3922.22         1.01882         1.22634         1706.47         157.525         0.000196384     1.14067         
6200       0.040419        1.30951e+07     11459.4         4114.7          1.0205          1.22531         1723.55         186.815         0.000198693     1.19788         
6300       0.0395217       1.3515e+07      11526.5         4276.01         1.02201         1.22528         1741.69         219.947         0.000200987     1.24474         
6400       0.0386453       1.3949e+07      11594.9         4397.36         1.02328         1.22611         1760.84         257.119         0.000203266     1.27895         
6500       0.0377926       1.43929e+07     11663.7         4471.2          1.02423         1.2277          1780.92         298.474         0.00020553      1.29883         
6600       0.0369666       1.48415e+07     11732.2         4492.23         1.0248          1.22998         1801.87         344.096         0.000207781     1.3035          
6700       0.0361701       1.52895e+07     11799.6         4458.31         1.02496         1.23292         1823.64         394             0.000210018     1.29313         
6800       0.0354056       1.57314e+07     11865           4371.08         1.02469         1.23653         1846.17         448.123         0.000212243     1.26897         
6900       0.034675        1.61621e+07     11927.9         4236.08         1.02402         1.24086         1869.39         506.33          0.00021445      1.23411         
7000       0.0339793       1.65773e+07     11987.7         4062.28         1.023           1.24597         1893.26         568.434         0.000216651     1.19003         
7100       0.0333188       1.69736e+07     12043.9         3861.08         1.0217          1.25193         1917.72         634.184         0.00021884      1.14077         
7200       0.0326928       1.7349e+07      12096.4         3644.87         1.02021         1.25878         1942.69         703.295         0.000221018     1.08968         
7300       0.0321          1.77025e+07     12145.1         3425.75         1.01863         1.26647         1968.06         775.469         0.000223183     1.03981         
7400       0.0315385       1.80344e+07     12190.3         3214.1          1.01703         1.2749          1993.65         850.39          0.000225334     0.993587        
7500       0.0310059       1.83459e+07     12232.1         3017.96         1.01551         1.28384         2019.26         927.754         0.000227469     0.952748        
7600       0.0304997       1.86387e+07     12270.9         2842.86         1.0141          1.29299         2044.6          1007.26         0.000229585     0.918367        
7700       0.0300174       1.89152e+07     12307.1         2691.86         1.01284         1.30195         2069.38         1088.64         0.00023168      0.890921        
7800       0.0295564       1.91779e+07     12341           2566.05         1.01176         1.31035         2093.29         1171.62         0.000233751     0.870435        
7900       0.0291143       1.94293e+07     12373           2465            1.01086         1.3178          2116.04         1255.96         0.000235794     0.856611        
8000       0.0286892       1.96717e+07     12403.5         2387.3          1.01014         1.32401         2137.45         1341.44         0.000237812     0.848919        
8100       0.028279        1.99075e+07     12432.8         2330.96         1.0096          1.32882         2157.38         1427.84         0.000239791     0.846828        
8200       0.0278822       2.01385e+07     12461.1         2293.78         1.00921         1.33216         2175.82         1514.99         0.000241734     0.849677        
8300       0.0274974       2.03668e+07     12488.8         2273.49         1.00897         1.33406         2192.82         1602.72         0.000243629     0.857073        
8400       0.0271232       2.05937e+07     12516           2267.97         1.00886         1.33466         2208.51         1690.87         0.000245489     0.868055        
8500       0.0267587       2.08208e+07     12542.8         2275.28         1.00887         1.33413         2223.05         1779.29         0.000247304     0.882278        
8600       0.026403        2.10492e+07     12569.5         2293.66         1.00898         1.33266         2236.62         1867.87         0.000249072     0.899277        
8700       0.0260552       2.12798e+07     12596.2         2321.62         1.00918         1.33046         2249.41         1956.48         0.00025079      0.918646        
8800       0.0257148       2.15138e+07     12622.9         2357.82         1.00947         1.32771         2261.58         2045.03         0.000252463     0.939984        
8900       0.0253812       2.17516e+07     12649.8         2401.15         1.00984         1.32459         2273.31         2133.42         0.000254078     0.963056        
9000       0.0250539       2.19942e+07     12676.9         2450.62         1.01027         1.32122         2284.72         2221.59         0.000255638     0.987543        
9100       0.0247325       2.2242e+07      12704.3         2505.4          1.01075         1.31773         2295.92         2309.45         0.000257143     1.0132          
9200       0.0244166       2.24954e+07     12732           2564.77         1.01129         1.3142          2307.02         2396.95         0.000258592     1.03981         
9300       0.0241059       2.2755e+07      12760.1         2628.12         1.01187         1.31071         2318.08         2484.04         0.000259989     1.06716         
9400       0.0238002       2.30212e+07     12788.5         2694.9          1.01249         1.30729         2329.16         2570.68         0.000261324     1.09512         
9500       0.0234992       2.32941e+07     12817.4         2764.66         1.01315         1.30399         2340.31         2656.8          0.000262601     1.12351         
9600       0.0232028       2.35742e+07     12846.7         2837.01         1.01383         1.30082         2351.56         2742.4          0.00026382      1.1522          
9700       0.0229108       2.38616e+07     12876.5         2911.64         1.01454         1.29781         2362.93         2827.44         0.000264981     1.18105         
9800       0.022623        2.41566e+07     12906.8         2988.29         1.01526         1.29494         2374.43         2911.91         0.000266086     1.20997         
9900       0.0223393       2.44593e+07     12937.5         3066.77         1.01601         1.29222         2386.09         2995.78         0.000267133     1.23886         
10000      0.0220596       2.477e+07       12968.7         3146.93         1.01676         1.28965         2397.88         3079.06         0.000268126     1.26752         
10100      0.0217838       2.50888e+07     13000.4         3228.73         1.01753         1.28721         2409.82         3161.75         0.000269055     1.29614         
10200      0.0215117       2.54158e+07     13032.7         3312.16         1.0183          1.28489         2421.91         3243.84         0.000269927     1.32454         
10300      0.0212434       2.57512e+07     13065.4         3397.29         1.01908         1.28267         2434.12         3325.35         0.000270739     1.35269         
10400      0.0209787       2.60953e+07     13098.6         3484.26         1.01986         1.28055         2446.46         3406.29         0.000271491     1.38057         
10500      0.0207176       2.64482e+07     13132.4         3573.27         1.02065         1.27852         2458.92         3486.69         0.000272182     1.40819         
10600      0.0204599       2.681e+07       13166.7         3664.59         1.02145         1.27655         2471.49         3566.57         0.00027281      1.43556         
10700      0.0202056       2.71812e+07     13201.5         3758.52         1.02225         1.27464         2484.16         3645.95         0.000273371     1.4627          
10800      0.0199546       2.75618e+07     13237           3855.43         1.02306         1.27278         2496.92         3724.88         0.000273866     1.48966         
10900      0.0197068       2.79524e+07     13273           3955.71         1.02389         1.27098         2509.77         3803.37         0.000274289     1.51648         
11000      0.0194621       2.83531e+07     13309.5         4059.77         1.02473         1.26922         2522.72         3881.49         0.000274638     1.54322         
11100      0.0192204       2.87645e+07     13346.8         4168.02         1.02559         1.26751         2535.76         3959.28         0.000274908     1.56996         
11200      0.0189816       2.91869e+07     13384.7         4280.87         1.02647         1.26586         2548.9          4036.79         0.000275096     1.59675         
11300      0.0187456       2.96208e+07     13423.2         4398.69         1.02738         1.26427         2562.15         4114.06         0.000275197     1.62368         
11400      0.0185123       3.00668e+07     13462.5         4521.82         1.02833         1.26276         2575.52         4191.14         0.000275208     1.65082         
11500      0.0182815       3.05253e+07     13502.6         4650.54         1.02931         1.26132         2589.02         4268.07         0.000275121     1.67824         
11600      0.0180531       3.09971e+07     13543.4         4785.08         1.03033         1.25998         2602.66         4344.89         0.000274934     1.706           
11700      0.0178271       3.14826e+07     13585.1         4925.59         1.03139         1.25875         2616.48         4421.65         0.000274642     1.73417         
