T(K)       rho(kg/m3)      h(J/kg)         s(J/K/kg)       Cp(J/K/kg)      p*kappa_T(1)    gamma(1)        vel(m/s)        sigma(S/m)      eta(kg/m/s)     kappa(W/m/K)    
300        3.48928         -6.95414e+06    2844.87         729.773         1               1.15062         181.593         1e-06           1.67095e-05     0.0184019       
400        2.61696         -6.8754e+06     3070.65         836.79          1               1.12888         207.694         1e-06           2.17209e-05     0.0262768       
500        2.09357         -6.78798e+06    3265.43         907.013         1               1.11772         231.059         1e-06           2.66048e-05     0.0341388       
600        1.74464         -6.69473e+06    3435.32         955.131         1               1.11113         252.366         1e-06           3.13461e-05     0.0419155       
700        1.49541         -6.59744e+06    3585.21         988.516         1               1.10698         272.076         1e-06           3.59399e-05     0.0495352       
800        1.30848         -6.49734e+06    3718.85         1012.32         1               1.1042          290.496         1e-06           4.03885e-05     0.0569696       
900        1.16309         -6.39515e+06    3839.18         1030.91         1               1.10213         307.829         1e-06           4.46976e-05     0.0642493       
1000       1.04678         -6.29119e+06    3948.71         1048.77         1               1.10026         324.204         1e-06           4.88754e-05     0.0712947       
1100       0.951556        -6.18585e+06    4051.08         1062.11         1.00004         1.09918         339.866         1e-06           5.29269e-05     0.0791476       
1200       0.871916        -6.0782e+06     4144.73         1096.78         1.0003          1.09747         354.728         1e-06           5.68665e-05     0.0906823       
1300       0.80335         -5.96415e+06    4235.96         1204.76         1.0015          1.09487         368.895         1e-06           6.0717e-05      0.117834        
1400       0.74083         -5.83019e+06    4335.09         1530.14         1.00597         1.093           382.964         1e-06           6.45368e-05     0.193511        
1500       0.676953        -5.64059e+06    4465.56         2391.48         1.01961         1.10078         399.352         1e-06           6.84638e-05     0.390978        
1600       0.600736        -5.31375e+06    4675.8          4411.61         1.05422         1.13493         423.329         1e-06           7.27651e-05     0.825739        
1700       0.501471        -4.6879e+06     5053.97         8513.56         1.12317         1.21144         463.773         1e-06           7.77735e-05     1.54227         
1800       0.387036        -3.56815e+06    5692.59         13494.1         1.19402         1.29685         529.741         1e-06           8.33547e-05     1.98779         
1900       0.300816        -2.27102e+06    6394.61         10799.7         1.14568         1.26078         604.836         1e-06           8.81545e-05     1.28777         
2000       0.256767        -1.42801e+06    6827.83         7182.55         1.09125         1.21732         659.129         1e-06           9.16369e-05     0.88397         
2100       0.223929        -645530         7209.24         8872.24         1.11353         1.24741         707.29          1e-06           9.4555e-05      1.12752         
2200       0.193078        321072          7658.7          9954.72         1.12942         1.27476         764.574         1e-06           9.72028e-05     1.21679         
2300       0.169128        1.23853e+06     8066.85         8051.34         1.10324         1.26097         822.069         1e-06           9.97587e-05     0.950596        
2400       0.152921        1.923e+06       8358.5          5827.75         1.06975         1.23926         870.376         2.75152e-06     0.00010237      0.709391        
2500       0.14115         2.45815e+06     8577.05         5156.63         1.05457         1.22667         907.79          7.37506e-06     0.000105071     0.66191         
2600       0.130962        3.00257e+06     8790.48         5912.13         1.05836         1.22484         940.048         1.75331e-05     0.000107832     0.783011        
2700       0.121058        3.6566e+06      9037.16         7122.6          1.07125         1.23687         976.606         3.93155e-05     0.000110642     0.947648        
2800       0.111638        4.39412e+06     9305.35         7391.45         1.07629         1.24889         1019.51         9.19399e-05     0.000113503     0.982882        
2900       0.103536        5.09246e+06     9550.51         6433.99         1.06762         1.25325         1064.8          0.000231586     0.000116379     0.867955        
3000       0.0970182       5.66997e+06     9746.42         5131.27         1.05391         1.25774         1109.09         0.000581992     0.000119226     0.716328        
3100       0.091776        6.12859e+06     9896.89         4104.8          1.04242         1.26751         1151.04         0.00138541      0.000122016     0.59954         
3200       0.0874112       6.5028e+06      10015.8         3429.18         1.03454         1.28095         1190.17         0.0030886       0.000124746     0.468764        
3300       0.0836465       6.82208e+06     10114           2983.93         1.02919         1.29567         1226.8          0.00646591      0.00012743      0.427107        
3400       0.0803214       7.1035e+06      10198.1         2657.76         1.02519         1.31115         1261.86         0.0127834       0.000130077     0.395686        
3500       0.0773449       7.35552e+06     10271.1         2389.45         1.02177         1.32787         1296.24         0.0240227       0.0001327       0.369576        
3600       0.0746595       7.5825e+06      10335.1         2155.28         1.01864         1.34622         1330.47         0.0432103       0.000135306     0.347096        
3700       0.0722226       7.78756e+06     10391.3         1950.86         1.01573         1.36603         1364.6          0.0749287       0.000137907     0.328007        
3800       0.0699982       7.97373e+06     10441           1778.13         1.0131          1.38641         1398.23         0.126099        0.000140506     0.312844        
3900       0.0679553       8.1443e+06      10485.3         1638.74         1.0108          1.40591         1430.65         0.207075        0.000143103     0.301938        
4000       0.0660666       8.30257e+06     10525.4         1532.02         1.00886         1.42282         1461.07         0.333           0.000145696     0.295328        
4100       0.0643089       8.45171e+06     10562.2         1455.45         1.00728         1.43564         1488.72         0.525326        0.00014829      0.292691        
4200       0.0626633       8.59455e+06     10596.6         1405.64         1.00603         1.4433          1513.1          0.813303        0.000150875     0.294127        
4300       0.0611139       8.73362e+06     10629.3         1379.3          1.00507         1.44536         1533.98         1.2354          0.000153456     0.299102        
4400       0.0596478       8.8711e+06      10660.9         1373.67         1.00436         1.44196         1551.44         1.84051         0.000156025     0.307835        
4500       0.0582544       9.00897e+06     10691.9         1386.77         1.00388         1.43365         1565.73         2.68914         0.000158586     0.320165        
4600       0.0569248       9.14904e+06     10722.7         1417.3          1.00359         1.42128         1577.29         3.8545          0.000161136     0.336692        
4700       0.0556516       9.29299e+06     10753.7         1464.59         1.00347         1.40585         1586.64         5.42372         0.000163676     0.356774        
4800       0.0544281       9.44251e+06     10785.1         1528.44         1.00352         1.38837         1594.33         7.49895         0.000166199     0.38112         
4900       0.0532487       9.59924e+06     10817.5         1608.91         1.00372         1.36979         1600.91         10.1989         0.000168715     0.40988         
5000       0.0521085       9.76485e+06     10850.9         1706.19         1.00407         1.35099         1606.9          13.6597         0.000171219     0.443379        
5100       0.0510028       9.94104e+06     10885.8         1820.45         1.00457         1.33266         1612.77         18.0363         0.000173709     0.481821        
5200       0.0499277       1.01295e+07     10922.4         1951.67         1.00523         1.31536         1618.9          23.503          0.000176187     0.525314        
5300       0.0488796       1.03319e+07     10960.9         2099.51         1.00604         1.29949         1625.6          30.2539         0.000178652     0.573815        
5400       0.0478554       1.05499e+07     11001.7         2263.09         1.00701         1.28528         1633.12         38.5031         0.000181103     0.627073        
5500       0.0468524       1.0785e+07      11044.8         2440.91         1.00812         1.27288         1641.62         48.4839         0.000183539     0.684588        
5600       0.0458683       1.10385e+07     11090.5         2630.62         1.00937         1.26232         1651.21         60.4466         0.000185962     0.745557        
5700       0.0449016       1.13114e+07     11138.8         2828.9          1.01074         1.25358         1661.98         74.6572         0.00018837      0.808835        
5800       0.0439512       1.16044e+07     11189.7         3031.36         1.0122          1.24658         1673.94         91.3931         0.000190763     0.87291         
5900       0.0430165       1.19177e+07     11243.3         3232.46         1.01372         1.2412          1687.11         110.937         0.000193141     0.935937        
6000       0.0420976       1.22507e+07     11299.2         3425.6          1.01526         1.23732         1701.47         133.571         0.000195503     0.995757        
6100       0.0411953       1.26023e+07     11357.4         3603.27         1.01675         1.2348          1716.99         159.573         0.000197852     1.05003         
6200       0.0403111       1.29705e+07     11417.2         3757.43         1.01813         1.23351         1733.63         189.194         0.000200184     1.09637         
6300       0.0394466       1.33527e+07     11478.4         3880.03         1.01933         1.23332         1751.36         222.662         0.000202502     1.13256         
6400       0.0386043       1.37452e+07     11540.2         3963.8          1.02029         1.23412         1770.11         260.163         0.000204806     1.15681         
6500       0.0377865       1.4144e+07      11602           4003.07         1.02095         1.23585         1789.83         301.823         0.000207096     1.16797         
6600       0.0369959       1.45443e+07     11663.1         3994.68         1.02126         1.23845         1810.48         347.714         0.000209374     1.16576         
6700       0.0362346       1.49413e+07     11722.8         3938.63         1.02121         1.24193         1832.02         397.838         0.00021164      1.15088         
6800       0.0355046       1.53305e+07     11780.5         3838.44         1.02079         1.24629         1854.38         452.123         0.000213893     1.12495         
6900       0.0348071       1.57078e+07     11835.6         3700.94         1.02004         1.25159         1877.53         510.436         0.000216131     1.09114         
7000       0.0341426       1.60698e+07     11887.7         3535.53         1.01903         1.25787         1901.41         572.588         0.000218361     1.05104         
7100       0.0335109       1.64143e+07     11936.5         3353.05         1.01782         1.26514         1925.93         638.34          0.00022058      1.00829         
7200       0.0329108       1.67402e+07     11982.1         3164.45         1.0165          1.27336         1950.98         707.419         0.000222787     0.965743        
7300       0.0323408       1.70473e+07     12024.5         2979.68         1.01514         1.28236         1976.36         779.545         0.00022498      0.9258          
7400       0.031799        1.73365e+07     12063.8         2806.69         1.01382         1.2919          2001.83         854.418         0.000227157     0.89025         
7500       0.0312829       1.76092e+07     12100.5         2651.15         1.01259         1.30164         2027.1          931.748         0.000229316     0.860249        
7600       0.0307903       1.78674e+07     12134.7         2516.49         1.01149         1.31117         2051.83         1011.25         0.000231455     0.836394        
7700       0.0303188       1.81133e+07     12166.8         2404.17         1.01054         1.32003         2075.67         1092.65         0.00023357      0.818822        
7800       0.0298662       1.8349e+07      12197.2         2314.17         1.00975         1.32785         2098.35         1175.69         0.00023566      0.807342        
7900       0.0294304       1.85768e+07     12226.2         2245.45         1.00913         1.33431         2119.62         1260.14         0.00023772      0.801551        
8000       0.0290096       1.87988e+07     12254.2         2196.35         1.00866         1.33922         2139.36         1345.75         0.000239746     0.800932        
8100       0.0286022       1.90167e+07     12281.2         2164.9          1.00833         1.34254         2157.55         1432.33         0.000241744     0.80489         
8200       0.0282069       1.92323e+07     12307.7         2149.1          1.00814         1.34431         2174.25         1519.68         0.000243697     0.812938        
8300       0.0278224       1.9447e+07      12333.7         2147.02         1.00808         1.34468         2189.6          1607.64         0.0002456       0.824731        
8400       0.0274478       1.96621e+07     12359.5         2156.85         1.00812         1.34385         2203.77         1696.03         0.000247467     0.839412        
8500       0.027082        1.98787e+07     12385.1         2177.02         1.00826         1.34204         2216.95         1784.71         0.000249287     0.85672         
8600       0.0267244       2.00978e+07     12410.7         2206.11         1.00849         1.33947         2229.35         1873.56         0.000251058     0.876281        
8700       0.0263743       2.03202e+07     12436.4         2242.92         1.0088          1.33635         2241.13         1962.44         0.000252778     0.89776         
8800       0.0260312       2.05466e+07     12462.3         2286.38         1.00918         1.33284         2252.47         2051.26         0.000254446     0.920865        
8900       0.0256945       2.07776e+07     12488.4         2335.59         1.00962         1.3291          2263.5          2139.92         0.000256065     0.945297        
9000       0.0253638       2.10139e+07     12514.8         2389.76         1.01011         1.32526         2274.35         2228.34         0.000257624     0.970907        
9100       0.0250389       2.12557e+07     12541.5         2448.21         1.01066         1.3214          2285.11         2316.44         0.00025913      0.997427        
9200       0.0247193       2.15036e+07     12568.6         2510.33         1.01125         1.3176          2295.86         2404.16         0.000260576     1.02471         
9300       0.0244049       2.17579e+07     12596.1         2575.6          1.01188         1.31391         2306.65         2491.45         0.000261965     1.05258         
9400       0.0240953       2.20188e+07     12624           2643.54         1.01254         1.31037         2317.53         2578.25         0.000263296     1.08087         
9500       0.0237905       2.22867e+07     12652.4         2713.75         1.01323         1.307           2328.54         2664.52         0.000264571     1.10945         
9600       0.0234901       2.25616e+07     12681.2         2785.87         1.01394         1.30382         2339.7          2750.22         0.000265789     1.13818         
9700       0.0231942       2.28439e+07     12710.4         2859.58         1.01467         1.30082         2351.02         2835.33         0.000266949     1.16696         
9800       0.0229025       2.31336e+07     12740.1         2934.64         1.01542         1.298           2362.51         2919.82         0.000268055     1.19569         
9900       0.022615        2.34309e+07     12770.3         3010.82         1.01617         1.29537         2374.18         3003.68         0.000269111     1.22415         
10000      0.0223315       2.37358e+07     12800.9         3087.99         1.01694         1.29289         2386.02         3086.88         0.000270106     1.25251         
10100      0.022052        2.40485e+07     12832.1         3166.05         1.0177          1.29057         2398.03         3169.44         0.000271046     1.28057         
10200      0.0217764       2.4369e+07      12863.6         3244.96         1.01847         1.28838         2410.2          3251.34         0.000271933     1.30831         
10300      0.0215047       2.46975e+07     12895.7         3324.78         1.01924         1.2863          2422.52         3332.6          0.000272765     1.33567         
10400      0.0212367       2.5034e+07      12928.2         3405.6          1.02001         1.28432         2434.97         3413.22         0.000273542     1.36264         
10500      0.0209724       2.53787e+07     12961.2         3487.61         1.02077         1.28243         2447.54         3493.22         0.000274265     1.38923         
10600      0.0207118       2.57316e+07     12994.6         3571.04         1.02153         1.2806          2460.21         3572.61         0.000274931     1.41544         
10700      0.0204547       2.6093e+07      13028.6         3656.2          1.02229         1.27882         2472.98         3651.43         0.000275538     1.44129         
10800      0.0202011       2.64629e+07     13063           3743.46         1.02305         1.27707         2485.84         3729.7          0.000276086     1.46683         
10900      0.019951        2.68417e+07     13097.9         3833.22         1.02381         1.27536         2498.76         3807.47         0.00027657      1.49211         
11000      0.0197042       2.72297e+07     13133.3         3925.94         1.02458         1.27367         2511.76         3884.77         0.000276989     1.51719         
11100      0.0194606       2.7627e+07      13169.3         4022.08         1.02536         1.27201         2524.81         3961.65         0.000277338     1.54214         
11200      0.0192202       2.80342e+07     13205.8         4122.11         1.02615         1.27036         2537.93         4038.17         0.000277613     1.56705         
11300      0.0189828       2.84516e+07     13242.9         4226.48         1.02696         1.26874         2551.11         4114.37         0.00027781      1.59198         
11400      0.0187483       2.88797e+07     13280.6         4335.63         1.0278          1.26716         2564.37         4190.3          0.000277925     1.61702         
11500      0.0185167       2.93189e+07     13319           4449.94         1.02866         1.26562         2577.71         4266            0.00027795      1.64226         
11600      0.0182877       2.97698e+07     13358           4569.74         1.02956         1.26414         2591.14         4341.54         0.000277883     1.66776         
11700      0.0180613       3.0233e+07      13397.8         4695.31         1.0305          1.26272         2604.69         4416.94         0.000277716     1.69361         
