T(K)       rho(kg/m3)      h(J/kg)         s(J/K/kg)       Cp(J/K/kg)      p*kappa_T(1)    gamma(1)        vel(m/s)        sigma(S/m)      eta(kg/m/s)     kappa(W/m/K)    
300        4.67238         -7.82734e+06    2329.89         692.528         1               1.11485         154.468         1e-06           1.55591e-05     0.0154042       
400        3.50428         -7.75165e+06    2546.82         811.866         1               1.09634         176.878         1e-06           2.01634e-05     0.0228726       
500        2.80343         -7.66634e+06    2736.86         889.06          1               1.08724         196.933         1e-06           2.47191e-05     0.0304046       
600        2.33619         -7.57468e+06    2903.83         940.747         1               1.08206         215.214         1e-06           2.92282e-05     0.0378923       
700        2.00245         -7.47875e+06    3051.63         975.433         1               1.07891         232.12          1e-06           3.36863e-05     0.0452427       
800        1.75214         -7.37995e+06    3183.52         999.159         1               1.07689         247.914         1e-06           3.80881e-05     0.0524265       
900        1.55746         -7.27911e+06    3302.27         1017.08         1               1.07544         262.775         1e-06           4.24278e-05     0.0594961       
1000       1.4017          -7.17656e+06    3410.31         1034.37         1.00001         1.07411         276.819         1e-06           4.67009e-05     0.0663826       
1100       1.27418         -7.07278e+06    3511.44         1045.72         1.00005         1.07351         290.252         1e-06           5.08999e-05     0.0739002       
1200       1.16747         -6.96694e+06    3603.52         1076.11         1.00034         1.07274         303.074         1e-06           5.50292e-05     0.0842498       
1300       1.07535         -6.85552e+06    3692.65         1169.93         1.00173         1.07242         315.525         1e-06           5.91069e-05     0.106638        
1400       0.990601        -6.72681e+06    3787.9          1452.93         1.00688         1.07521         328.329         1e-06           6.31991e-05     0.166648        
1500       0.902164        -6.54948e+06    3909.96         2209.62         1.02267         1.08972         343.674         1e-06           6.74808e-05     0.322695        
1600       0.793269        -6.24976e+06    4102.76         4040            1.06348         1.13339         366.536         1e-06           7.23104e-05     0.677318        
1700       0.647008        -5.66783e+06    4454.32         8086.94         1.149           1.22911         406.613         1e-06           7.81942e-05     1.32574         
1800       0.473892        -4.54268e+06    5095.67         14434.2         1.25381         1.35263         477.127         1e-06           8.50972e-05     1.94254         
1900       0.341531        -3.03595e+06    5910.55         13449.1         1.20932         1.32263         565.891         1e-06           9.10275e-05     1.44588         
2000       0.279617        -2.01145e+06    6437.28         8073.83         1.1157          1.23876         630.142         1e-06           9.48994e-05     0.883228        
2100       0.24023         -1.1789e+06     6843.21         9293.43         1.1294          1.26144         681.86          1e-06           9.78957e-05     1.06289         
2200       0.203819        -138239         7327            11065.9         1.15376         1.29814         742.987         1e-06           0.000100485     1.221           
2300       0.175172        909973          7793.23         9396.65         1.12788         1.28423         806.226         1e-06           0.00010292      1.0031          
2400       0.156183        1.70932e+06     8133.84         6735.53         1.08634         1.25368         859.595         2.62166e-06     0.000105446     0.741739        
2500       0.143028        2.3129e+06      8380.38         5653.72         1.06429         1.23555         900.928         7.14375e-06     0.000108116     0.659935        
2600       0.132116        2.89683e+06     8609.32         6251.4          1.06473         1.23125         935.569         1.71546e-05     0.000110873     0.754855        
2700       0.121679        3.5892e+06      8870.46         7598.7          1.07803         1.24316         973.511         3.83481e-05     0.000113683     0.920127        
2800       0.111677        4.38886e+06     9161.22         8149.83         1.08571         1.25706         1018.21         8.79207e-05     0.000116539     0.984118        
2900       0.10299         5.16932e+06     9435.18         7269.25         1.07786         1.2612          1065.89         0.000217979     0.000119429     0.890695        
3000       0.096027        5.8241e+06      9657.3          5819.99         1.06264         1.26309         1112.57         0.000547361     0.000122309     0.740839        
3100       0.0905035       6.34197e+06     9827.22         4605.32         1.04912         1.27041         1156.72         0.00131055      0.000125144     0.618129        
3200       0.0859745       6.75874e+06     9959.61         3789.66         1.03967         1.28272         1197.94         0.00294328      0.000127925     0.515           
3300       0.0821151       7.10929e+06     10067.5         3256.16         1.03331         1.29729         1236.49         0.00620853      0.000130659     0.464271        
3400       0.0787347       7.41495e+06     10158.8         2874.24         1.02867         1.31307         1273.28         0.012366        0.000133355     0.426743        
3500       0.0757261       7.68655e+06     10237.5         2566.08         1.02481         1.33038         1309.32         0.0234018       0.000136025     0.395994        
3600       0.073024        7.9295e+06      10306           2298.52         1.02131         1.34982         1345.32         0.0423597       0.000138678     0.369424        
3700       0.0705819       8.14731e+06     10365.7         2063.15         1.01806         1.37153         1381.56         0.0738506       0.000141329     0.346347        
3800       0.0683617       8.34323e+06     10418           1860.94         1.01509         1.39498         1417.83         0.124835        0.00014398      0.327248        
3900       0.0663305       8.52067e+06     10464.1         1693.7          1.01247         1.41897         1453.57         0.205741        0.000146634     0.312478        
4000       0.0644599       8.68313e+06     10505.2         1561.03         1.01024         1.44181         1487.99         0.331891        0.00014929      0.302054        
4100       0.0627255       8.83394e+06     10542.4         1460.26         1.00838         1.46177         1520.21         0.525135        0.000151944     0.295728        
4200       0.0611072       8.97611e+06     10576.7         1387.5          1.00688         1.47736         1549.56         0.815504        0.000154599     0.293029        
4300       0.0595885       9.11224e+06     10608.7         1338.67         1.0057          1.48764         1575.56         1.2428          0.00015725      0.293672        
4400       0.058156        9.24452e+06     10639.2         1310.08         1.00478         1.49227         1598.05         1.85797         0.000159886     0.297611        
4500       0.0567987       9.37483e+06     10668.4         1298.78         1.0041          1.49141         1617.12         2.72439         0.000162515     0.304392        
4600       0.0555078       9.50478e+06     10697           1302.49         1.00361         1.48561         1633.03         3.91907         0.000165137     0.314456        
4700       0.0542756       9.63577e+06     10725.2         1319.6          1.00328         1.47567         1646.19         5.5339          0.00016775      0.326785        
4800       0.0530961       9.7691e+06      10753.2         1348.94         1.0031          1.46248         1657.07         7.67683         0.000170352     0.34183         
4900       0.0519637       9.90594e+06     10781.5         1389.65         1.00305         1.44699         1666.18         10.4734         0.000172943     0.359603        
5000       0.0508738       1.00474e+07     10810           1440.99         1.00311         1.43011         1674.03         14.0674         0.000175523     0.380081        
5100       0.0498225       1.01945e+07     10839.2         1502.16         1.00328         1.41269         1681.12         18.6226         0.00017809      0.403181        
5200       0.0488062       1.03481e+07     10869           1572.23         1.00355         1.39545         1687.91         24.3225         0.000180645     0.42872         
5300       0.0478219       1.05092e+07     10899.7         1649.92         1.00391         1.37897         1694.8          31.3709         0.000183188     0.456378        
5400       0.046867        1.06783e+07     10931.3         1733.54         1.00435         1.36374         1702.12         39.9914         0.000185719     0.485665        
5500       0.0459395       1.0856e+07      10963.9         1820.88         1.00485         1.35008         1710.15         50.4251         0.000188236     0.515902        
5600       0.0450375       1.10425e+07     10997.5         1909.14         1.00541         1.33823         1719.13         62.9274         0.000190741     0.54622         
5700       0.0441599       1.12377e+07     11032           1994.95         1.00599         1.32834         1729.2          77.7672         0.000193233     0.575568        
5800       0.0433059       1.14413e+07     11067.4         2074.46         1.00657         1.32049         1740.5          95.2166         0.000195713     0.602766        
5900       0.042475        1.16523e+07     11103.5         2143.52         1.00711         1.31472         1753.11         115.55          0.00019818      0.626601        
6000       0.0416674       1.18695e+07     11140           2198            1.0076          1.31102         1767.11         139.03          0.000200635     0.645924        
6100       0.0408834       1.20913e+07     11176.7         2234.25         1.00798         1.3094          1782.53         165.905         0.000203079     0.65982         
6200       0.0401234       1.23157e+07     11213.1         2249.55         1.00824         1.30985         1799.41         196.394         0.000205511     0.66773         
6300       0.0393883       1.25405e+07     11249.1         2242.64         1.00835         1.31234         1817.75         230.682         0.000207933     0.669592        
6400       0.0386786       1.27635e+07     11284.2         2214.06         1.00831         1.31684         1837.53         268.911         0.000210343     0.665883        
6500       0.0379946       1.29826e+07     11318.2         2166.31         1.00811         1.32326         1858.69         311.169         0.000212744     0.657596        
6600       0.0373366       1.31962e+07     11350.8         2103.56         1.00779         1.33146         1881.11         357.495         0.000215135     0.646114        
6700       0.0367042       1.3403e+07      11381.9         2031.18         1.00736         1.34118         1904.56         407.875         0.000217515     0.633011        
6800       0.0360967       1.36023e+07     11411.5         1954.91         1.00688         1.35202         1928.73         462.239         0.000219883     0.619844        
6900       0.035513        1.3794e+07      11439.4         1880.17         1.00637         1.36346         1953.21         520.481         0.00022224      0.607973        
7000       0.0349518       1.39786e+07     11466           1811.4          1.00588         1.37484         1977.51         582.446         0.000224583     0.598432        
7100       0.0344116       1.41566e+07     11491.3         1751.82         1.00544         1.3855          2001.12         647.943         0.000226909     0.591893        
7200       0.0338906       1.43293e+07     11515.4         1703.33         1.00506         1.39481         2023.59         716.763         0.000229211     0.589288        
7300       0.0333874       1.44977e+07     11538.6         1666.74         1.00476         1.40228         2044.53         788.667         0.000231498     0.589654        
7400       0.0329003       1.4663e+07      11561.1         1641.99         1.00455         1.4076          2063.74         863.404         0.000233762     0.593361        
7500       0.032428        1.48265e+07     11583.1         1628.46         1.00442         1.41069         2081.12         940.718         0.000236002     0.600189        
7600       0.0319693       1.49891e+07     11604.6         1625.26         1.00437         1.41163         2096.75         1020.34         0.000238213     0.60986         
7700       0.0315229       1.51518e+07     11625.9         1631.38         1.00441         1.41063         2110.76         1102.01         0.000240393     0.622083        
7800       0.031088        1.53156e+07     11647           1645.78         1.00451         1.40799         2123.37         1185.47         0.000242545     0.636555        
7900       0.0306635       1.54812e+07     11668.1         1667.53         1.00469         1.40403         2134.82         1270.47         0.000244655     0.65306         
8000       0.0302488       1.56494e+07     11689.3         1695.78         1.00492         1.39905         2145.34         1356.77         0.000246724     0.671338        
8100       0.0298432       1.58206e+07     11710.5         1729.79         1.00522         1.39335         2155.15         1444.14         0.000248753     0.691188        
8200       0.029446        1.59955e+07     11732           1768.93         1.00557         1.38718         2164.45         1532.38         0.000250736     0.712426        
8300       0.0290567       1.61745e+07     11753.7         1812.65         1.00597         1.38073         2173.4          1621.3          0.00025266      0.735099        
8400       0.0286748       1.63581e+07     11775.7         1860.48         1.00642         1.37419         2182.14         1710.7          0.000254543     0.758697        
8500       0.0282999       1.65467e+07     11798           1912            1.00691         1.36767         2190.8          1800.44         0.000256378     0.783214        
8600       0.0279317       1.67407e+07     11820.7         1966.84         1.00745         1.36129         2199.46         1890.36         0.000258152     0.808615        
8700       0.0275697       1.69402e+07     11843.8         2024.63         1.00802         1.35512         2208.2          1980.32         0.00025987      0.834745        
8800       0.0272137       1.71457e+07     11867.2         2085.06         1.00864         1.34923         2217.07         2070.22         0.000261529     0.861495        
8900       0.0268635       1.73573e+07     11891.1         2147.81         1.00929         1.34364         2226.14         2159.93         0.00026313      0.888756        
9000       0.0265187       1.75753e+07     11915.5         2212.54         1.00997         1.33838         2235.43         2249.37         0.000264677     0.916353        
9100       0.0261791       1.77999e+07     11940.3         2278.96         1.01068         1.33348         2244.96         2338.45         0.000266156     0.944322        
9200       0.0258446       1.80311e+07     11965.6         2346.71         1.01141         1.32893         2254.77         2427.08         0.000267577     0.972486        
9300       0.025515        1.82692e+07     11991.3         2415.49         1.01217         1.32475         2264.87         2515.21         0.000268944     1.00068         
9400       0.0251902       1.85143e+07     12017.5         2484.94         1.01294         1.32092         2275.25         2602.76         0.000270246     1.02892         
9500       0.02487         1.87662e+07     12044.2         2554.73         1.01373         1.31744         2285.94         2689.69         0.000271492     1.05702         
9600       0.0245544       1.90252e+07     12071.3         2624.52         1.01453         1.31428         2296.93         2775.95         0.000272681     1.08491         
9700       0.0242433       1.92911e+07     12098.9         2693.95         1.01533         1.31144         2308.21         2861.48         0.000273817     1.11246         
9800       0.0239366       1.9564e+07      12126.9         2762.71         1.01613         1.3089          2319.78         2946.27         0.000274902     1.13959         
9900       0.0236343       1.98436e+07     12155.2         2830.49         1.01693         1.30663         2331.63         3030.26         0.000275938     1.16621         
10000      0.0233364       2.013e+07       12184           2896.98         1.01771         1.30461         2343.75         3113.45         0.000276926     1.19224         
10100      0.0230428       2.0423e+07      12213.2         2961.95         1.01849         1.30282         2356.12         3195.79         0.000277869     1.2176          
10200      0.0227535       2.07224e+07     12242.7         3025.18         1.01924         1.30123         2368.73         3277.28         0.000278771     1.24224         
10300      0.0224685       2.1028e+07      12272.5         3086.52         1.01996         1.29981         2381.56         3357.88         0.000279632     1.2661          
10400      0.0221879       2.13396e+07     12302.6         3145.89         1.02066         1.29854         2394.58         3437.59         0.000280455     1.28915         
10500      0.0219116       2.16571e+07     12333           3203.29         1.02132         1.29738         2407.77         3516.41         0.000281242     1.31137         
10600      0.0216397       2.19802e+07     12363.6         3258.78         1.02196         1.29631         2421.1          3594.35         0.000281992     1.33277         
10700      0.0213721       2.23088e+07     12394.5         3312.54         1.02255         1.2953          2434.55         3671.4          0.000282707     1.35335         
10800      0.0211088       2.26426e+07     12425.5         3364.84         1.02311         1.29432         2448.09         3747.59         0.000283387     1.37315         
10900      0.0208499       2.29817e+07     12456.8         3416.05         1.02364         1.29334         2461.68         3822.93         0.00028403      1.39222         
11000      0.0205952       2.33258e+07     12488.2         3466.64         1.02413         1.29232         2475.29         3897.45         0.000284636     1.41061         
11100      0.0203448       2.3675e+07      12519.8         3517.18         1.02459         1.29126         2488.89         3971.18         0.000285205     1.42823         
11200      0.0200985       2.40293e+07     12551.6         3568.32         1.02502         1.29011         2502.44         4044.16         0.000285725     1.44555         
11300      0.0198564       2.43887e+07     12583.5         3620.78         1.02544         1.28887         2515.93         4116.44         0.000286196     1.46245         
11400      0.0196183       2.47535e+07     12615.7         3675.34         1.02584         1.28751         2529.33         4188.06         0.000286614     1.47906         
11500      0.0193841       2.51239e+07     12648           3732.83         1.02623         1.28602         2542.61         4259.1          0.000286971     1.49547         
11600      0.0191537       2.55002e+07     12680.6         3794.07         1.02662         1.2844          2555.75         4329.61         0.000287264     1.51181         
11700      0.0189269       2.58829e+07     12713.4         3859.92         1.02703         1.28264         2568.75         4399.66         0.00028748      1.5282          
