T(K)       rho(kg/m3)      h(J/kg)         s(J/K/kg)       Cp(J/K/kg)      p*kappa_T(1)    gamma(1)        vel(m/s)        sigma(S/m)      eta(kg/m/s)     kappa(W/m/K)    
300        3.96252         -7.36599e+06    2604.68         712.206         1               1.13393         169.164         1e-06           1.62267e-05     0.0170841       
400        2.97189         -7.28869e+06    2826.29         825.034         1               1.11354         193.569         1e-06           2.10733e-05     0.0247911       
500        2.37751         -7.20227e+06    3018.83         898.545         1               1.10329         215.419         1e-06           2.58308e-05     0.0325228       
600        1.98126         -7.10976e+06    3187.35         948.347         1               1.09734         235.342         1e-06           3.04898e-05     0.0401896       
700        1.69822         -7.01312e+06    3336.25         982.345         1               1.09365         253.771         1e-06           3.50435e-05     0.0477088       
800        1.48594         -6.91363e+06    3469.06         1006.11         1               1.09124         270.993         1e-06           3.94898e-05     0.0550504       
900        1.32084         -6.81208e+06    3588.65         1024.39         1               1.08947         287.199         1e-06           4.38287e-05     0.0622541       
1000       1.18875         -6.70878e+06    3697.48         1041.98         1               1.08786         302.511         1e-06           4.80623e-05     0.0692443       
1100       1.08061         -6.60417e+06    3799.26         1054.4          1.00005         1.08702         317.157         1e-06           5.21903e-05     0.0769533       
1200       0.99014         -6.49737e+06    3892.17         1087.16         1.00032         1.08578         331.096         1e-06           5.62227e-05     0.0879301       
1300       0.912164        -6.38453e+06    3982.44         1188.89         1.0016          1.08433         344.506         1e-06           6.01803e-05     0.112795        
1400       0.840787        -6.25294e+06    4079.83         1495.66         1.00636         1.08476         358.053         1e-06           6.4125e-05      0.180933        
1500       0.767183        -6.06876e+06    4206.57         2311.52         1.02093         1.09577         374.035         1e-06           6.82103e-05     0.358559        
1600       0.678112        -5.75371e+06    4409.24         4252.36         1.05822         1.13424         397.571         1e-06           7.27409e-05     0.755641        
1700       0.560414        -5.1459e+06     4776.47         8352.84         1.13436         1.21916         437.927         1e-06           7.81177e-05     1.4435          
1800       0.422858        -4.01824e+06    5419.43         13992.5         1.21981         1.32093         506.054         1e-06           8.42372e-05     1.97604         
1900       0.318228        -2.62194e+06    6174.89         11990.2         1.1726          1.28667         587.206         1e-06           8.94905e-05     1.36123         
2000       0.266915        -1.69958e+06    6649            7563.13         1.10157         1.22617         645.776         1e-06           9.31341e-05     0.880168        
2100       0.231258        -894662         7041.39         9080.33         1.12079         1.25377         695.501         1e-06           9.60861e-05     1.09697         
2200       0.197912        108288          7507.7          10489.8         1.14067         1.28548         754.601         1e-06           9.87094e-05     1.22078         
2300       0.171856        1.08742e+06     7943.25         8676.1          1.11447         1.2714          814.751         1e-06           0.000101215     0.976175        
2400       0.154403        1.82477e+06     8257.44         6242.63         1.07727         1.24564         865.38          2.69012e-06     0.000103794     0.724354        
2500       0.142009        2.39113e+06     8488.76         5383.44         1.05898         1.23065         904.616         7.26645e-06     0.000106484     0.660227        
2600       0.131492        2.95373e+06     8709.32         6070.8          1.06129         1.22775         937.969         1.73553e-05     0.000109246     0.768915        
2700       0.121339        3.62605e+06     8962.9          7352.28         1.07446         1.23979         975.166         3.88404e-05     0.000112057     0.93461         
2800       0.111642        4.39345e+06     9241.94         7753.7          1.08077         1.25269         1018.92         8.99351e-05     0.00011492      0.984152        
2900       0.103264        5.13068e+06     9500.74         6826.67         1.07244         1.25687         1065.33         0.000224862     0.000117806     0.879276        
3000       0.0965378       5.74434e+06     9708.91         5452.13         1.058           1.26011         1110.74         0.000564994     0.00012067      0.728185        
3100       0.0911641       6.23051e+06     9868.43         4337.34         1.04555         1.26875         1153.73         0.0013488       0.000123484     0.608444        
3200       0.0867224       6.6245e+06      9993.58         3596.89         1.03694         1.28169         1193.85         0.00301775      0.000126239     0.490281        
3300       0.0829132       6.95835e+06     10096.3         3110.98         1.03113         1.29637         1231.39         0.00634083      0.000128948     0.444457        
3400       0.079562        7.2511e+06      10183.8         2759.07         1.02683         1.31201         1267.26         0.0125813       0.000131619     0.410226        
3500       0.0765703       7.51229e+06     10259.5         2472.26         1.0232          1.32902         1302.43         0.0237233       0.000134264     0.381968        
3600       0.0738769       7.74677e+06     10325.6         2222.5          1.0199          1.34789         1337.5          0.0428019       0.000136894     0.35759         
3700       0.0714374       7.95781e+06     10383.4         2003.63         1.01683         1.3686          1372.62         0.0744133       0.000139519     0.336656        
3800       0.0692151       8.14857e+06     10434.3         1817.21         1.01404         1.39042         1407.49         0.125498        0.000142143     0.319685        
3900       0.0671777       8.3224e+06      10479.5         1664.97         1.01159         1.41195         1441.44         0.206444        0.000144767     0.307026        
4000       0.0652976       8.48269e+06     10520           1546.41         1.00951         1.4315          1473.64         0.332483        0.000147391     0.298705        
4100       0.063551        8.63272e+06     10557.1         1458.94         1.0078          1.44737         1503.29         0.525258        0.000150016     0.294366        
4200       0.0619182       8.7754e+06      10591.5         1398.95         1.00644         1.45831         1529.76         0.814397        0.00015263      0.294096        
4300       0.0603833       8.9133e+06      10623.9         1362.79         1.00537         1.46363         1552.72         1.239           0.000155244     0.297223        
4400       0.0589329       9.04864e+06     10655           1347.3          1.00457         1.46325         1572.13         1.84896         0.000157843     0.303943        
4500       0.0575563       9.18337e+06     10685.3         1350.05         1.004           1.45758         1588.19         2.70612         0.00016044      0.313947        
4600       0.0562447       9.3192e+06      10715.2         1369.33         1.00362         1.44738         1601.28         3.88552         0.000163025     0.327771        
4700       0.0549904       9.45775e+06     10745           1404.06         1.00341         1.43358         1611.86         5.47654         0.000165594     0.34472         
4800       0.0537871       9.60051e+06     10775           1453.61         1.00336         1.41719         1620.49         7.58412         0.000168157     0.365199        
4900       0.0526291       9.74895e+06     10805.6         1517.67         1.00345         1.39919         1627.71         10.3302         0.000170708     0.389441        
5000       0.0515117       9.90452e+06     10837.1         1596.01         1.00368         1.3805          1634.06         13.8547         0.000173246     0.417587        
5100       0.0504305       1.00686e+07     10869.5         1688.39         1.00404         1.36191         1640.03         18.3169         0.000175773     0.449719        
5200       0.0493818       1.02427e+07     10903.3         1794.38         1.00454         1.34404         1646.04         23.8956         0.000178286     0.485816        
5300       0.0483621       1.04279e+07     10938.6         1913.22         1.00516         1.32737         1652.44         30.79           0.000180786     0.525712        
5400       0.0473687       1.06257e+07     10975.6         2043.64         1.0059          1.31224         1659.52         39.219          0.000183273     0.569036        
5500       0.046399        1.0837e+07      11014.4         2183.77         1.00676         1.29885         1667.49         49.4209         0.000185745     0.615191        
5600       0.0454511       1.10627e+07     11055           2330.95         1.00771         1.2873          1676.49         61.6489         0.000188205     0.663306        
5700       0.0445235       1.13033e+07     11097.6         2481.68         1.00874         1.27762         1686.62         76.1721         0.00019065      0.712218        
5800       0.0436153       1.1559e+07      11142.1         2631.57         1.00983         1.26977         1697.93         93.2673         0.00019308      0.760479        
5900       0.0427261       1.18294e+07     11188.3         2775.38         1.01093         1.26369         1710.46         113.215         0.000195498     0.806412        
6000       0.041856        1.21137e+07     11236.1         2907.16         1.012           1.25927         1724.21         136.29          0.0001979       0.848162        
6100       0.0410056       1.24102e+07     11285.1         3020.6          1.013           1.25643         1739.18         162.758         0.000200289     0.883869        
6200       0.0401761       1.2717e+07      11335           3109.44         1.01386         1.25506         1755.33         192.857         0.000202664     0.9118          
6300       0.0393689       1.30311e+07     11385.2         3168.16         1.01455         1.25509         1772.66         226.795         0.000205027     0.930583        
6400       0.0385858       1.33494e+07     11435.4         3192.59         1.015           1.25647         1791.13         264.735         0.000207377     0.939396        
6500       0.0378284       1.36684e+07     11484.8         3180.71         1.01521         1.25915         1810.73         306.783         0.000209715     0.938125        
6600       0.0370983       1.39844e+07     11533           3133.07         1.01513         1.26313         1831.41         352.989         0.000212043     0.92745         
6700       0.0363969       1.42939e+07     11579.6         3053.07         1.0148          1.26842         1853.15         403.342         0.000214359     0.908796        
6800       0.0357247       1.45941e+07     11624.1         2946.63         1.01423         1.27502         1875.89         457.763         0.000216664     0.884179        
6900       0.0350819       1.48827e+07     11666.2         2821.55         1.01347         1.28288         1899.53         516.127         0.00021896      0.855955        
7000       0.0344681       1.51581e+07     11705.8         2686.49         1.01259         1.29189         1923.93         578.254         0.000221237     0.827189        
7100       0.0338822       1.54199e+07     11743           2549.9          1.01164         1.30185         1948.87         643.925         0.000223506     0.798844        
7200       0.0333227       1.56683e+07     11777.7         2419.11         1.01069         1.31244         1974.06         712.898         0.000225761     0.773216        
7300       0.0327877       1.59041e+07     11810.2         2299.81         1.00978         1.32319         1999.13         784.914         0.000227999     0.751563        
7400       0.0322753       1.61288e+07     11840.8         2195.76         1.00896         1.33362         2023.69         859.702         0.000230219     0.734618        
7500       0.0317835       1.63438e+07     11869.7         2108.94         1.00826         1.34321         2047.32         936.99          0.000232418     0.722688        
7600       0.0313101       1.65511e+07     11897.1         2039.95         1.00767         1.35151         2069.7          1016.51         0.000234592     0.715754        
7700       0.0308535       1.67524e+07     11923.4         1988.33         1.00721         1.35817         2090.56         1097.99         0.00023674      0.713572        
7800       0.030412        1.69493e+07     11948.9         1952.96         1.00688         1.363           2109.78         1181.18         0.000238859     0.71577         
7900       0.0299839       1.71435e+07     11973.6         1932.4          1.00667         1.36598         2127.33         1265.83         0.000240944     0.721914        
8000       0.0295681       1.73363e+07     11997.8         1925.04         1.00658         1.3672          2143.29         1351.73         0.000242992     0.731553        
8100       0.0291634       1.75289e+07     12021.8         1929.34         1.00658         1.36686         2157.84         1438.64         0.000245003     0.744263        
8200       0.0287688       1.77225e+07     12045.5         1943.83         1.00668         1.36519         2171.15         1526.38         0.000246972     0.759647        
8300       0.0283834       1.7918e+07      12069.2         1967.2          1.00687         1.36247         2183.46         1614.75         0.000248892     0.777521        
8400       0.0280065       1.81162e+07     12093           1998.3          1.00713         1.35894         2194.97         1703.59         0.000250769     0.797276        
8500       0.0276375       1.83178e+07     12116.8         2036.13         1.00746         1.35485         2205.88         1792.74         0.000252594     0.818762        
8600       0.0272758       1.85236e+07     12140.9         2079.8          1.00786         1.35038         2216.36         1882.06         0.000254373     0.841717        
8700       0.0269209       1.8734e+07      12165.2         2128.57         1.00831         1.34572         2226.57         1971.42         0.000256094     0.865963        
8800       0.0265724       1.89495e+07     12189.8         2181.77         1.00882         1.34098         2236.61         2060.72         0.000257759     0.89129         
8900       0.0262299       1.91704e+07     12214.8         2238.81         1.00937         1.33628         2246.6          2149.85         0.00025937      0.917518        
9000       0.0258931       1.93973e+07     12240.2         2299.17         1.00996         1.3317          2256.62         2238.72         0.000260922     0.944483        
9100       0.0255618       1.96304e+07     12265.9         2362.36         1.0106          1.32728         2266.72         2327.25         0.000262422     0.971989        
9200       0.0252356       1.98699e+07     12292.1         2427.96         1.01126         1.32308         2276.95         2415.39         0.000263859     0.999995        
9300       0.0249145       2.0116e+07      12318.7         2495.54         1.01196         1.31911         2287.36         2503.04         0.000265238     1.02832         
9400       0.0245981       2.0369e+07      12345.8         2564.72         1.01268         1.3154          2297.96         2590.16         0.000266559     1.05683         
9500       0.0242864       2.0629e+07      12373.3         2635.14         1.01342         1.31195         2308.78         2676.71         0.000267825     1.08541         
9600       0.0239792       2.08961e+07     12401.2         2706.47         1.01418         1.30876         2319.83         2762.64         0.000269039     1.11386         
9700       0.0236764       2.11703e+07     12429.6         2778.4          1.01494         1.30581         2331.1          2847.92         0.000270192     1.14225         
9800       0.023378        2.14518e+07     12458.5         2850.64         1.01572         1.30311         2342.61         2932.51         0.000271293     1.17041         
9900       0.0230838       2.17405e+07     12487.8         2922.95         1.01649         1.30062         2354.34         3016.39         0.000272343     1.19824         
10000      0.0227937       2.20364e+07     12517.6         2995.13         1.01727         1.29834         2366.29         3099.54         0.000273341     1.22566         
10100      0.0225079       2.23395e+07     12547.7         3067.03         1.01804         1.29624         2378.45         3181.95         0.00027429      1.2526          
10200      0.0222261       2.26498e+07     12578.3         3138.54         1.0188          1.2943          2390.79         3263.61         0.000275192     1.27903         
10300      0.0219483       2.29672e+07     12609.3         3209.62         1.01955         1.2925          2403.32         3344.52         0.000276046     1.30489         
10400      0.0216746       2.32917e+07     12640.6         3280.32         1.02028         1.29082         2416            3424.67         0.000276854     1.33016         
10500      0.0214049       2.36232e+07     12672.3         3350.74         1.021           1.28922         2428.81         3504.07         0.000277618     1.35483         
10600      0.0211391       2.39618e+07     12704.4         3421.07         1.0217          1.28769         2441.74         3582.73         0.000278334     1.37892         
10700      0.0208773       2.43074e+07     12736.9         3491.56         1.02238         1.2862          2454.76         3660.67         0.000279003     1.40243         
10800      0.0206193       2.46601e+07     12769.7         3562.58         1.02305         1.28473         2467.86         3737.92         0.000279625     1.42541         
10900      0.0203651       2.502e+07       12802.9         3634.52         1.02371         1.28327         2481.01         3814.52         0.000280197     1.44792         
11000      0.0201147       2.53871e+07     12836.4         3707.88         1.02435         1.2818          2494.19         3890.5          0.000280717     1.47002         
11100      0.019868        2.57616e+07     12870.3         3783.19         1.02498         1.28031         2507.39         3965.9          0.000281181     1.49177         
11200      0.0196249       2.61438e+07     12904.6         3861.01         1.02562         1.27879         2520.6          4040.76         0.000281585     1.51327         
11300      0.0193852       2.65339e+07     12939.2         3941.93         1.02625         1.27723         2533.8          4115.15         0.000281925     1.53461         
11400      0.019149        2.69323e+07     12974.3         4026.57         1.0269          1.27564         2546.99         4189.1          0.000282198     1.55589         
11500      0.018916        2.73394e+07     13009.9         4115.48         1.02756         1.27401         2560.17         4262.68         0.000282393     1.57719         
11600      0.0186862       2.77556e+07     13045.9         4209.23         1.02823         1.27236         2573.35         4335.95         0.000282509     1.59862         
11700      0.0184594       2.81814e+07     13082.5         4308.32         1.02894         1.2707          2586.54         4408.97         0.000282537     1.62026         
