T(K)       rho(kg/m3)      h(J/kg)         s(J/K/kg)       Cp(J/K/kg)      p*kappa_T(1)    gamma(1)        vel(m/s)        sigma(S/m)      eta(kg/m/s)     kappa(W/m/K)    
300        4.909           -7.95147e+06    2254.26         687.233         1               1.10964         150.347         1e-06           1.5352e-05      0.0149102       
400        3.68175         -7.87621e+06    2469.92         808.323         1               1.09171         172.197         1e-06           1.98784e-05     0.0223037       
500        2.9454          -7.7912e+06     2659.29         886.508         1               1.08295         191.748         1e-06           2.43661e-05     0.0297704       
600        2.4545          -7.69977e+06    2825.85         938.702         1               1.07798         209.567         1e-06           2.88216e-05     0.0371975       
700        2.10386         -7.60404e+06    2973.35         973.573         1               1.07497         226.043         1e-06           3.32419e-05     0.04449         
800        1.84087         -7.50543e+06    3104.99         997.288         1               1.07306         241.435         1e-06           3.76215e-05     0.0516192       
900        1.63633         -7.40478e+06    3223.52         1015.11         1               1.07169         255.917         1e-06           4.19531e-05     0.0586415       
1000       1.47269         -7.30243e+06    3331.34         1032.32         1.00001         1.07044         269.603         1e-06           4.62305e-05     0.0654905       
1100       1.33871         -7.19886e+06    3432.3          1043.37         1.00005         1.06989         282.693         1e-06           5.04442e-05     0.0729493       
1200       1.22658         -7.09328e+06    3524.14         1073.09         1.00035         1.06924         295.198         1e-06           5.4597e-05      0.083127        
1300       1.12974         -6.98226e+06    3612.96         1164.59         1.00177         1.0692          307.367         1e-06           5.8706e-05      0.104859        
1400       1.04051         -6.85438e+06    3707.61         1440.62         1.00703         1.07256         319.939         1e-06           6.28385e-05     0.162721        
1500       0.947066        -6.67903e+06    3828.3          2179.78         1.0232          1.08799         335.075         1e-06           6.71762e-05     0.313037        
1600       0.831428        -6.38386e+06    4018.18         3976.19         1.06507         1.13314         357.717         1e-06           7.20945e-05     0.656127        
1700       0.675421        -5.81001e+06    4364.85         7998.53         1.15344         1.23208         397.681         1e-06           7.8135e-05      1.29258         
1800       0.490247        -4.68778e+06    5004.48         14529.6         1.26415         1.36225         468.836         1e-06           8.52914e-05     1.92954         
1900       0.348656        -3.15157e+06    5835.22         13865.9         1.22067         1.33383         559.826         1e-06           9.1446e-05      1.46887         
2000       0.283313        -2.09692e+06    6377.47         8229.06         1.12006         1.24273         625.798         1e-06           9.5391e-05      0.885402        
2100       0.242796        -1.25632e+06    6787.36         9348            1.13183         1.26362         678.106         1e-06           9.84007e-05     1.05382         
2200       0.205505        -206026         7275.6          11216.5         1.15737         1.30167         739.779         1e-06           0.00010098      1.22033         
2300       0.176115        860743          7750.07         9594.08         1.13165         1.28789         803.869         1e-06           0.000103392     1.01002         
2400       0.156684        1.67727e+06     8098            6873.29         1.0889          1.25601         858.003         2.60332e-06     0.000105902     0.746508        
2500       0.143313        2.29127e+06     8348.81         5729.46         1.06578         1.23696         899.911         7.11063e-06     0.000108564     0.660115        
2600       0.13229         2.88113e+06     8580.08         6300.66         1.06568         1.23224         934.91          1.71003e-05     0.000111319     0.751363        
2700       0.121775        3.57883e+06     8843.23         7663.24         1.07898         1.24408         973.058         3.82217e-05     0.000114126     0.916272        
2800       0.111691        4.38696e+06     9137.06         8254.64         1.08703         1.25825         1018.01         8.74157e-05     0.000116981     0.983878        
2900       0.102921        5.17899e+06     9415.08         7388.68         1.07933         1.26241         1066.04         0.000216233     0.000119871     0.893554        
3000       0.0958942       5.84493e+06     9640.99         5920.4          1.0639          1.26395         1113.06         0.000542848     0.000122754     0.744136        
3100       0.09033         6.37147e+06     9813.75         4678.72         1.05009         1.2709          1157.52         0.00130071      0.000125594     0.620687        
3200       0.0857774       6.79447e+06     9948.12         3842.37         1.04041         1.28303         1199.03         0.00292405      0.000128383     0.537739        
3300       0.0819044       7.14959e+06     10057.4         3295.71         1.0339          1.29757         1237.86         0.0061742       0.000131122     0.469664        
3400       0.0785161       7.45876e+06     10149.8         2905.49         1.02916         1.31338         1274.89         0.0123098       0.000133821     0.431606        
3500       0.0755031       7.73317e+06     10229.3         2591.45         1.02524         1.33077         1311.17         0.0233173       0.0001365       0.399779        
3600       0.0727987       7.97841e+06     10298.4         2319            1.02169         1.35036         1347.42         0.0422425       0.00013916      0.372601        
3700       0.0703558       8.19805e+06     10358.6         2079.09         1.01839         1.37235         1383.97         0.0736996       0.000141817     0.348923        
3800       0.0681362       8.39534e+06     10411.3         1872.49         1.01538         1.39627         1420.63         0.124654        0.000144475     0.329217        
3900       0.0661068       8.57372e+06     10457.6         1701.02         1.01271         1.42098         1456.89         0.205544        0.000147137     0.313833        
4000       0.0642387       8.7367e+06      10498.9         1564.28         1.01043         1.44483         1491.96         0.331713        0.000149801     0.30278         
4100       0.0625077       8.88765e+06     10536.1         1459.59         1.00853         1.46609         1524.99         0.525064        0.000152464     0.295796        
4200       0.0608933       9.02956e+06     10570.3         1382.97         1.007           1.48323         1555.27         0.815734        0.000155129     0.29238         
4300       0.0593791       9.16503e+06     10602.2         1330.18         1.00578         1.49526         1582.31         1.24371         0.000157789     0.292218        
4400       0.0579516       9.29626e+06     10632.4         1297.41         1.00483         1.50176         1605.91         1.86021         0.000160435     0.295239        
4500       0.0565998       9.42508e+06     10661.3         1281.51         1.00411         1.50282         1626.13         2.729           0.000163077     0.300927        
4600       0.0553147       9.55304e+06     10689.5         1280.06         1.00359         1.49892         1643.21         3.92764         0.000165706     0.309706        
4700       0.0540889       9.68151e+06     10717.1         1291.24         1.00322         1.49078         1657.5          5.54865         0.00016833      0.320485        
4800       0.0529162       9.81167e+06     10744.5         1313.75         1.003           1.47925         1669.46         7.70077         0.000170943     0.333676        
4900       0.0517913       9.9446e+06      10771.9         1346.53         1.0029          1.46523         1679.56         10.5104         0.000173546     0.349238        
5000       0.0507097       1.00813e+07     10799.5         1388.67         1.00291         1.44961         1688.3          14.1224         0.000176137     0.367096        
5100       0.0496673       1.02226e+07     10827.5         1439.23         1.00302         1.43324         1696.17         18.7016         0.000178716     0.387117        
5200       0.0486609       1.03694e+07     10856           1497.1          1.00321         1.41685         1703.63         24.4325         0.000181283     0.409068        
5300       0.0476874       1.05222e+07     10885.1         1560.88         1.00349         1.40107         1711.09         31.5199         0.000183839     0.432591        
5400       0.0467445       1.06817e+07     10914.9         1628.78         1.00382         1.38642         1718.91         40.1881         0.000186382     0.457172        
5500       0.04583         1.08481e+07     10945.5         1698.57         1.00421         1.37329         1727.4          50.6786         0.000188912     0.482136        
5600       0.0449424       1.10214e+07     10976.7         1767.5          1.00464         1.36196         1736.8          63.2469         0.000191431     0.506656        
5700       0.0440804       1.12014e+07     11008.5         1832.42         1.00507         1.35265         1747.32         78.1604         0.000193937     0.529775        
5800       0.0432433       1.13876e+07     11040.9         1889.87         1.00549         1.34548         1759.1          95.6894         0.000196431     0.550478        
5900       0.0424308       1.1579e+07      11073.6         1936.34         1.00587         1.34054         1772.27         116.105         0.000198915     0.567793        
6000       0.0416426       1.17744e+07     11106.5         1968.65         1.00618         1.33789         1786.92         139.667         0.000201385     0.580898        
6100       0.040879        1.19722e+07     11139.2         1984.33         1.00639         1.33755         1803.1          166.617         0.000203847     0.589271        
6200       0.0401402       1.21707e+07     11171.4         1982.09         1.0065          1.3395          1820.86         197.169         0.000206296     0.592778        
6300       0.0394265       1.2368e+07      11203           1962.17         1.00648         1.3437          1840.16         231.502         0.000208736     0.591758        
6400       0.0387382       1.25626e+07     11233.7         1926.46         1.00634         1.35004         1860.94         269.756         0.000211165     0.586992        
6500       0.038075        1.27529e+07     11263.2         1878.37         1.00609         1.35829         1883.03         312.016         0.000213584     0.579613        
6600       0.0374367       1.2938e+07      11291.4         1822.33         1.00577         1.3681          1906.17         358.321         0.000215994     0.570939        
6700       0.0368225       1.31173e+07     11318.4         1763.19         1.0054          1.37898         1929.98         408.661         0.000218391     0.562281        
6800       0.0362313       1.32907e+07     11344.1         1705.52         1.00502         1.39027         1953.99         462.973         0.000220776     0.554786        
6900       0.0356618       1.34586e+07     11368.6         1653.09         1.00465         1.40126         1977.66         521.156         0.000223149     0.549329        
7000       0.0351126       1.36216e+07     11392.1         1608.56         1.00432         1.41122         2000.46         583.065         0.000225507     0.546473        
7100       0.0345822       1.37806e+07     11414.6         1573.5          1.00405         1.41953         2021.95         648.515         0.000227847     0.546498        
7200       0.0340691       1.39366e+07     11436.4         1548.54         1.00384         1.42576         2041.79         717.303         0.00023017      0.549461        
7300       0.0335719       1.40906e+07     11457.7         1533.6          1.00371         1.42968         2059.81         789.195         0.000232462     0.555825        
7400       0.0330893       1.42436e+07     11478.5         1528.14         1.00365         1.4313          2076.01         863.942         0.000234738     0.564396        
7500       0.0326201       1.43965e+07     11499           1531.39         1.00366         1.43077         2090.49         941.288         0.000236992     0.57538         
7600       0.0321634       1.45502e+07     11519.4         1542.5          1.00374         1.42836         2103.43         1020.97         0.000239211     0.588579        
7700       0.0317181       1.47053e+07     11539.6         1560.64         1.00388         1.42441         2115.06         1102.71         0.000241399     0.603741        
7800       0.0312835       1.48625e+07     11559.9         1585.04         1.00408         1.41925         2125.63         1186.27         0.000243553     0.620656        
7900       0.0308587       1.50225e+07     11580.3         1615.04         1.00433         1.41319         2135.37         1271.38         0.000245669     0.639136        
8000       0.0304433       1.51857e+07     11600.8         1650.06         1.00463         1.4065          2144.47         1357.81         0.000247743     0.659014        
8100       0.0300364       1.53526e+07     11621.6         1689.6          1.00499         1.39943         2153.13         1445.33         0.000249776     0.68015         
8200       0.0296378       1.55237e+07     11642.6         1733.25         1.00538         1.39216         2161.5          1533.72         0.000251762     0.702412        
8300       0.0292467       1.56994e+07     11663.9         1780.63         1.00583         1.38486         2169.71         1622.8          0.000253688     0.72589         
8400       0.028863        1.588e+07       11685.5         1831.43         1.00631         1.37764         2177.86         1712.38         0.000255573     0.750117        
8500       0.0284861       1.60658e+07     11707.5         1885.35         1.00684         1.3706          2186.05         1802.29         0.000257408     0.775111        
8600       0.0281157       1.62571e+07     11729.9         1942.1          1.0074          1.36381         2194.33         1892.37         0.000259182     0.800868        
8700       0.0277514       1.64543e+07     11752.6         2001.43         1.008           1.35733         2202.77         1982.52         0.000260903     0.827187        
8800       0.0273931       1.66575e+07     11775.9         2063.06         1.00864         1.3512          2211.42         2072.58         0.000262559     0.854104        
8900       0.0270405       1.6867e+07      11799.5         2126.72         1.00931         1.34543         2220.3          2162.46         0.000264157     0.881456        
9000       0.0266933       1.70829e+07     11823.7         2192.12         1.01            1.34004         2229.44         2252.06         0.000265693     0.909147        
9100       0.0263513       1.73055e+07     11848.3         2258.97         1.01073         1.33504         2238.87         2341.29         0.000267168     0.937081        
9200       0.0260144       1.75347e+07     11873.3         2326.97         1.01148         1.33044         2248.6          2430.08         0.000268583     0.965157        
9300       0.0256823       1.77709e+07     11898.8         2395.79         1.01225         1.32621         2258.64         2518.34         0.000269939     0.993272        
9400       0.0253551       1.80139e+07     11924.8         2465.1          1.01304         1.32237         2268.99         2606.02         0.00027124      1.02127         
9500       0.0250325       1.82639e+07     11951.3         2534.54         1.01383         1.31889         2279.65         2693.06         0.000272479     1.04916         
9600       0.0247145       1.85208e+07     11978.2         2603.77         1.01464         1.31576         2290.64         2779.42         0.000273661     1.07678         
9700       0.024401        1.87846e+07     12005.5         2672.44         1.01545         1.31296         2301.93         2865.04         0.00027479      1.10402         
9800       0.0240919       1.90553e+07     12033.3         2740.2          1.01626         1.31047         2313.53         2949.89         0.000275868     1.13081         
9900       0.0237873       1.93326e+07     12061.4         2806.71         1.01706         1.30826         2325.42         3033.93         0.000276897     1.15704         
10000      0.0234871       1.96166e+07     12090           2871.65         1.01785         1.30633         2337.6          3117.14         0.00027788      1.18262         
10100      0.0231913       1.99069e+07     12118.9         2934.75         1.01862         1.30463         2350.04         3199.48         0.000278818     1.2075          
10200      0.0228999       2.02034e+07     12148.1         2995.75         1.01937         1.30314         2362.73         3280.93         0.000279717     1.2316          
10300      0.0226129       2.0506e+07      12177.6         3054.49         1.02009         1.30184         2375.65         3361.47         0.000280576     1.25486         
10400      0.0223303       2.08143e+07     12207.4         3110.82         1.02077         1.3007          2388.78         3441.08         0.000281398     1.27726         
10500      0.0220522       2.11281e+07     12237.4         3164.71         1.02142         1.29968         2402.09         3519.77         0.000282187     1.29877         
10600      0.0217785       2.14471e+07     12267.7         3216.19         1.02204         1.29876         2415.56         3597.53         0.000282948     1.3192          
10700      0.0215093       2.17712e+07     12298.1         3265.41         1.02261         1.29791         2429.15         3674.36         0.000283669     1.33896         
10800      0.0212446       2.21001e+07     12328.7         3312.6          1.02314         1.29709         2442.84         3750.28         0.000284359     1.35787         
10900      0.0209843       2.24337e+07     12359.4         3358.1          1.02363         1.29628         2456.59         3825.29         0.000285015     1.37597         
11000      0.0207284       2.27717e+07     12390.3         3402.39         1.02408         1.29544         2470.36         3899.42         0.000285636     1.39333         
11100      0.0204769       2.31141e+07     12421.3         3446            1.02449         1.29455         2484.12         3972.7          0.00028622      1.41001         
11200      0.0202298       2.34609e+07     12452.4         3489.62         1.02486         1.29357         2497.84         4045.17         0.000286764     1.42611         
11300      0.019987        2.38121e+07     12483.6         3533.99         1.02521         1.29247         2511.48         4116.87         0.000287263     1.44174         
11400      0.0197484       2.41678e+07     12514.9         3579.94         1.02554         1.29124         2525            4187.85         0.000287715     1.457           
11500      0.0195139       2.45282e+07     12546.4         3628.35         1.02586         1.28986         2538.38         4258.16         0.000288108     1.47201         
11600      0.0192834       2.48936e+07     12578.1         3680.15         1.02617         1.28831         2551.59         4327.89         0.000288441     1.48688         
11700      0.0190568       2.52643e+07     12609.9         3736.26         1.02648         1.28659         2564.61         4397.08         0.000288701     1.50175         
