T(K)       rho(kg/m3)      h(J/kg)         s(J/K/kg)       Cp(J/K/kg)      p*kappa_T(1)    gamma(1)        vel(m/s)        sigma(S/m)      eta(kg/m/s)     kappa(W/m/K)    
300        5.38224         -8.16699e+06    2119.75         678.04          1               1.10052         142.994         1e-06           1.49601e-05     0.0140056       
400        4.03668         -8.09249e+06    2333.23         802.172         1               1.08366         163.846         1e-06           1.9336e-05      0.0212565       
500        3.22934         -8.008e+06      2521.42         882.077         1               1.07551         182.495         1e-06           2.36893e-05     0.0285959       
600        2.69112         -7.91696e+06    2687.27         935.152         1               1.07092         199.486         1e-06           2.80352e-05     0.0359032       
700        2.30667         -7.82156e+06    2834.25         970.344         1               1.06818         215.193         1e-06           3.23747e-05     0.0430801       
800        2.01834         -7.72327e+06    2965.46         994.039         1               1.06644         229.864         1e-06           3.67023e-05     0.0500998       
900        1.79408         -7.62296e+06    3083.6          1011.7          1               1.06521         243.667         1e-06           4.10089e-05     0.0570266       
1000       1.61466         -7.52095e+06    3191.05         1028.76         1.00001         1.06409         256.713         1e-06           4.52851e-05     0.063799        
1100       1.46776         -7.41777e+06    3291.7          1039.29         1.00005         1.06363         269.189         1e-06           4.9518e-05      0.071146        
1200       1.34479         -7.31265e+06    3383.15         1067.77         1.00037         1.06316         281.121         1e-06           5.37072e-05     0.0810201       
1300       1.2385          -7.20233e+06    3471.41         1155.07         1.00184         1.06358         292.777         1e-06           5.78682e-05     0.101616        
1400       1.14028         -7.07593e+06    3564.96         1418.36         1.00733         1.06789         304.91          1e-06           6.20705e-05     0.155775        
1500       1.03674         -6.9042e+06     3683.17         2125.3          1.0242          1.08487         319.639         1e-06           6.65079e-05     0.29618         
1600       0.907428        -6.61739e+06    3867.68         3858.07         1.06808         1.13267         341.856         1e-06           7.15885e-05     0.619069        
1700       0.731615        -6.05879e+06    4205.12         7826.52         1.16181         1.23762         381.58          1e-06           7.79246e-05     1.2333          
1800       0.522053        -4.9441e+06     4840.35         14669.1         1.28365         1.38033         453.849         1e-06           8.55746e-05     1.90259         
1900       0.362072        -3.35701e+06    5698.44         14615.9         1.24215         1.35512         548.914         1e-06           9.21746e-05     1.50881         
2000       0.290049        -2.24703e+06    6269.19         8518.98         1.12829         1.25032         618.106         1e-06           9.62618e-05     0.890571        
2100       0.247417        -1.39166e+06    6686.31         9440.72         1.13617         1.26755         671.499         1e-06           9.92967e-05     1.03822         
2200       0.208536        -325171         7182.06         11473.2         1.16376         1.30792         734.121         1e-06           0.000101857     1.21846         
2300       0.177806        773761          7670.82         9940.28         1.13835         1.29446         799.711         1e-06           0.000104227     1.02171         
2400       0.15758         1.6206e+06      8031.66         7117.7          1.09348         1.26023         855.201         2.57156e-06     0.000106704     0.754868        
2500       0.143819        2.25313e+06     8290.05         5864.06         1.06846         1.23948         898.12          7.05305e-06     0.000109352     0.660667        
2600       0.132597        2.85347e+06     8525.44         6386.96         1.06737         1.234           933.753         1.70059e-05     0.000112102     0.745579        
2700       0.121947        3.56039e+06     8792.06         7773.62         1.08063         1.2457          972.263         3.80075e-05     0.000114904     0.909636        
2800       0.11172         4.38303e+06     9091.16         8434.76         1.0893          1.26033         1017.66         8.65724e-05     0.000117754     0.983253        
2900       0.102807        5.19504e+06     9376.2          7596.25         1.08187         1.26455         1066.28         0.000213299     0.000120642     0.898317        
3000       0.0956684       5.88046e+06     9608.71         6096.05         1.0661          1.2655          1113.9          0.000535223     0.000123529     0.749758        
3100       0.0900331       6.42218e+06     9786.46         4807.38         1.05178         1.27182         1158.91         0.00128402      0.000126378     0.625083        
3200       0.0854391       6.85612e+06     9924.3          3934.67         1.0417          1.28361         1200.93         0.00289134      0.000129177     0.540875        
3300       0.0815425       7.21921e+06     10036.1         3364.77         1.03493         1.29808         1240.23         0.00611559      0.000131927     0.479075        
3400       0.0781406       7.5345e+06      10130.2         2959.87         1.03002         1.31395         1277.7          0.0122134       0.000134637     0.439418        
3500       0.0751198       7.81381e+06     10211.2         2635.45         1.02598         1.3315          1314.39         0.0231711       0.000137326     0.406326        
3600       0.0724115       8.06301e+06     10281.4         2354.34         1.02234         1.35137         1351.1          0.0420373       0.000139996     0.378052        
3700       0.0699675       8.28577e+06     10342.5         2106.31         1.01896         1.37388         1388.19         0.0734306       0.000142665     0.353277        
3800       0.067749        8.48538e+06     10395.7         1891.77         1.01586         1.3987          1425.59         0.124323        0.000145335     0.332443        
3900       0.0657226       8.6653e+06      10442.5         1712.51         1.01312         1.42481         1462.82         0.205163        0.00014801      0.315889        
4000       0.0638591       8.82905e+06     10483.9         1568.14         1.01076         1.45069         1499.17         0.331331        0.000150688     0.303605        
4100       0.0621341       8.98e+06        10521.2         1455.89         1.00879         1.47462         1533.82         0.52481         0.000153366     0.295294        
4200       0.0605269       9.12116e+06     10555.2         1371.59         1.00718         1.49511         1566.06         0.815912        0.000156047     0.290394        
4300       0.0590209       9.2551e+06      10586.8         1310.74         1.0059          1.51107         1595.37         1.24492         0.000158724     0.288528        
4400       0.0576025       9.38395e+06     10616.4         1269.21         1.00489         1.52199         1621.53         1.86352         0.000161388     0.289564        
4500       0.0562607       9.50947e+06     10644.6         1243.51         1.0041          1.52781         1644.54         2.73617         0.000164048     0.292882        
4600       0.0549867       9.63309e+06     10671.8         1230.86         1.00351         1.52889         1664.56         3.94126         0.000166696     0.29882         
4700       0.0537731       9.756e+06       10698.2         1229.1          1.00307         1.5258          1681.9          5.57241         0.000169342     0.306164        
4800       0.0526138       9.87922e+06     10724.1         1236.56         1.00276         1.51925         1696.94         7.73963         0.000171975     0.315246        
4900       0.0515036       1.00036e+07     10749.8         1251.84         1.00256         1.51002         1710.08         10.5707         0.000174598     0.325909        
5000       0.0504381       1.01298e+07     10775.3         1273.69         1.00246         1.49894         1721.79         14.2121         0.00017721      0.337974        
5100       0.0494137       1.02585e+07     10800.8         1300.86         1.00243         1.48678         1732.5          18.8302         0.000179811     0.35121         
5200       0.0484271       1.03901e+07     10826.3         1331.96         1.00246         1.4743          1742.67         24.6106         0.000182397     0.365304        
5300       0.0474757       1.0525e+07      10852           1365.45         1.00255         1.46219         1752.72         31.7597         0.000184975     0.379865        
5400       0.046557        1.06632e+07     10877.8         1399.51         1.00267         1.45102         1763.05         40.5018         0.000187543     0.394397        
5500       0.0456694       1.08048e+07     10903.8         1432.1          1.00282         1.44133         1774.02         51.078          0.000190098     0.408334        
5600       0.0448112       1.09495e+07     10929.9         1461.04         1.00297         1.43352         1785.93         63.7424         0.000192643     0.421079        
5700       0.0439814       1.10968e+07     10956           1484.14         1.00311         1.42792         1799.05         78.7587         0.000195178     0.432059        
5800       0.0431789       1.12461e+07     10981.9         1499.46         1.00322         1.42475         1813.58         96.3924         0.000197701     0.440813        
5900       0.0424033       1.13964e+07     11007.6         1505.64         1.00328         1.42416         1829.65         116.907         0.000200214     0.447086        
6000       0.0416538       1.15469e+07     11032.9         1502.14         1.00329         1.42614         1847.31         140.556         0.000202717     0.450884        
6100       0.0409301       1.16965e+07     11057.7         1489.45         1.00324         1.43056         1866.5          167.571         0.000205211     0.452524        
6200       0.0402316       1.18445e+07     11081.7         1469.17         1.00314         1.43709         1887.02         198.158         0.000207693     0.452576        
6300       0.0395576       1.19902e+07     11105           1443.73         1.003           1.44522         1908.54         232.494         0.000210167     0.451803        
6400       0.0389072       1.21332e+07     11127.5         1416.05         1.00283         1.45425         1930.6          270.713         0.000212634     0.451006        
6500       0.0382794       1.22734e+07     11149.3         1389.03         1.00265         1.46337         1952.63         312.905         0.000215085     0.450942        
6600       0.037673        1.24111e+07     11170.3         1365.14         1.00248         1.47175         1974.07         359.117         0.000217527     0.452191        
6700       0.0370867       1.25466e+07     11190.7         1346.16         1.00234         1.47864         1994.41         409.347         0.000219954     0.455136        
6800       0.0365192       1.26805e+07     11210.5         1333.16         1.00224         1.48354         2013.27         463.548         0.000222367     0.459977        
6900       0.0359693       1.28135e+07     11229.9         1326.56         1.00218         1.48616         2030.46         521.628         0.000224766     0.466768        
7000       0.0354357       1.29461e+07     11249           1326.34         1.00216         1.48645         2045.9          583.454         0.000227148     0.475458        
7100       0.0349172       1.30789e+07     11267.9         1332.17         1.00219         1.48457         2059.7          648.851         0.00022951      0.485938        
7200       0.034413        1.32127e+07     11286.6         1343.62         1.00227         1.48077         2072            717.62          0.000231852     0.498081        
7300       0.033922        1.33478e+07     11305.2         1360.21         1.00239         1.47538         2083.02         789.533         0.00023417      0.511752        
7400       0.0334434       1.34849e+07     11323.9         1381.49         1.00255         1.46872         2092.96         864.341         0.000236463     0.526828        
7500       0.0329764       1.36243e+07     11342.6         1407.05         1.00275         1.4611          2102.04         941.788         0.000238729     0.543194        
7600       0.0325204       1.37664e+07     11361.4         1436.56         1.00299         1.45279         2110.45         1021.6          0.000240963     0.560752        
7700       0.0320746       1.39117e+07     11380.4         1469.75         1.00327         1.44403         2118.36         1103.52         0.000243157     0.579967        
7800       0.0316386       1.40605e+07     11399.6         1506.4          1.00358         1.43501         2125.9          1187.28         0.000245321     0.599763        
7900       0.0312117       1.42131e+07     11419           1546.32         1.00393         1.4259          2133.21         1272.63         0.000247447     0.620537        
8000       0.0307935       1.43699e+07     11438.7         1589.34         1.00432         1.41682         2140.38         1359.31         0.000249534     0.642179        
8100       0.0303835       1.45311e+07     11458.8         1635.34         1.00474         1.40788         2147.51         1447.1          0.000251572     0.664735        
8200       0.0299814       1.4697e+07      11479.1         1684.19         1.0052          1.39916         2154.67         1535.78         0.000253563     0.688094        
8300       0.0295866       1.4868e+07      11499.9         1735.75         1.0057          1.39073         2161.92         1625.16         0.000255491     0.712398        
8400       0.0291989       1.50443e+07     11521           1789.9          1.00623         1.38263         2169.31         1715.04         0.000257377     0.737235        
8500       0.0288178       1.52261e+07     11542.5         1846.48         1.00679         1.37492         2176.9          1805.26         0.000259206     0.762702        
8600       0.0284432       1.54136e+07     11564.4         1905.35         1.00739         1.36761         2184.71         1895.66         0.000260984     0.788686        
8700       0.0280746       1.56072e+07     11586.8         1966.32         1.00803         1.36073         2192.77         1986.11         0.000262696     0.815215        
8800       0.0277119       1.5807e+07      11609.6         2029.19         1.00869         1.35429         2201.12         2076.48         0.000264347     0.842166        
8900       0.0273549       1.60131e+07     11632.9         2093.75         1.00939         1.34829         2209.76         2166.66         0.000265938     0.869457        
9000       0.0270032       1.62258e+07     11656.7         2159.74         1.01011         1.34274         2218.73         2256.56         0.000267466     0.897005        
9100       0.0266567       1.64451e+07     11680.9         2226.91         1.01086         1.33762         2228.02         2346.07         0.000268931     0.924717        
9200       0.0263153       1.66712e+07     11705.6         2294.95         1.01163         1.33295         2237.65         2435.12         0.000270336     0.952502        
9300       0.0259788       1.69041e+07     11730.8         2363.54         1.01242         1.32869         2247.62         2523.63         0.000271679     0.980261        
9400       0.0256472       1.71439e+07     11756.4         2432.34         1.01322         1.32484         2257.93         2611.54         0.000272961     1.00789         
9500       0.0253202       1.73905e+07     11782.5         2500.99         1.01404         1.32139         2268.59         2698.8          0.000274198     1.03505         
9600       0.0249978       1.76441e+07     11809.1         2569.12         1.01486         1.31831         2279.58         2785.33         0.000275365     1.06214         
9700       0.02468         1.79043e+07     11836.1         2636.34         1.01568         1.31559         2290.91         2871.11         0.000276478     1.0888          
9800       0.0243668       1.81713e+07     11863.4         2702.28         1.0165          1.3132          2302.57         2956.09         0.000277542     1.11492         
9900       0.0240581       1.84447e+07     11891.2         2766.54         1.0173          1.31112         2314.54         3040.23         0.000278557     1.14042         
10000      0.0237538       1.87245e+07     11919.3         2828.76         1.0181          1.30933         2326.82         3123.49         0.000279526     1.16519         
10100      0.0234541       1.90104e+07     11947.8         2888.61         1.01887         1.3078          2339.39         3205.85         0.000280452     1.18917         
10200      0.0231589       1.93022e+07     11976.5         2945.76         1.01961         1.30651         2352.24         3287.25         0.00028134      1.21228         
10300      0.0228683       1.95995e+07     12005.5         2999.98         1.02031         1.30543         2365.34         3367.69         0.000282191     1.23446         
10400      0.0225822       1.9902e+07      12034.7         3051.06         1.02098         1.30453         2378.67         3447.15         0.000283008     1.25568         
10500      0.0223008       2.02096e+07     12064.2         3098.88         1.02161         1.30378         2392.21         3525.63         0.000283795     1.27591         
10600      0.022024        2.05217e+07     12093.8         3143.4          1.02219         1.30315         2405.93         3603.1          0.000284551     1.29514         
10700      0.0217518       2.08381e+07     12123.5         3184.7          1.02272         1.30261         2419.81         3679.56         0.000285279     1.31337         
10800      0.0214844       2.11586e+07     12153.3         3222.94         1.0232          1.30212         2433.8          3755.02         0.00028598      1.33063         
10900      0.0212217       2.14826e+07     12183.2         3258.43         1.02362         1.30166         2447.88         3829.47         0.000286652     1.34695         
11000      0.0209637       2.18102e+07     12213.1         3291.57         1.02399         1.30118         2461.99         3902.94         0.000287295     1.36241         
11100      0.0207105       2.21409e+07     12243           3322.91         1.02431         1.30066         2476.11         3975.45         0.000287907     1.37706         
11200      0.0204619       2.24747e+07     12272.9         3353.12         1.02459         1.30004         2490.18         4047.02         0.000288485     1.39101         
11300      0.0202179       2.28115e+07     12302.9         3382.98         1.02482         1.2993          2504.16         4117.7          0.000289024     1.40435         
11400      0.0199785       2.31513e+07     12332.8         3413.4          1.02502         1.2984          2518            4187.53         0.000289522     1.41721         
11500      0.0197435       2.34942e+07     12362.8         3445.37         1.02519         1.29731         2531.66         4256.57         0.000289969     1.42969         
11600      0.0195129       2.38405e+07     12392.7         3479.95         1.02534         1.29599         2545.1          4324.88         0.000290362     1.44193         
11700      0.0192866       2.41904e+07     12422.8         3518.26         1.02549         1.29444         2558.28         4392.53         0.000290687     1.45405         
