T(K)       rho(kg/m3)      h(J/kg)         s(J/K/kg)       Cp(J/K/kg)      p*kappa_T(1)    gamma(1)        vel(m/s)        sigma(S/m)      eta(kg/m/s)     kappa(W/m/K)    
300        4.43576         -7.68996e+06    2412.59         698.387         1               1.12057         158.941         1e-06           1.57739e-05     0.0159292       
400        3.32682         -7.61379e+06    2630.91         815.787         1               1.10146         181.958         1e-06           2.04577e-05     0.023475        
500        2.66146         -7.52815e+06    2821.7          891.884         1               1.09201         202.56          1e-06           2.50814e-05     0.0310732       
600        2.21788         -7.43624e+06    2989.13         943.01          1               1.08659         221.342         1e-06           2.96427e-05     0.0386214       
700        1.90104         -7.3401e+06     3137.26         977.491         1               1.08328         238.712         1e-06           3.41361e-05     0.0460293       
800        1.66341         -7.2411e+06     3269.42         1001.23         1               1.08114         254.943         1e-06           3.8557e-05      0.0532671       
900        1.47859         -7.14005e+06    3388.42         1019.25         1               1.0796          270.214         1e-06           4.2901e-05      0.060383        
1000       1.33072         -7.03727e+06    3496.69         1036.64         1.00001         1.07819         284.645         1e-06           4.71658e-05     0.0673058       
1100       1.20966         -6.93324e+06    3598.02         1048.31         1.00005         1.07752         298.449         1e-06           5.1346e-05      0.0748846       
1200       1.10836         -6.82711e+06    3690.35         1079.44         1.00034         1.07661         311.614         1e-06           5.54478e-05     0.0854224       
1300       1.02096         -6.71527e+06    3779.82         1175.71         1.00169         1.07598         324.364         1e-06           5.94901e-05     0.108542        
1400       0.940678        -6.58567e+06    3875.73         1466.14         1.00671         1.07809         337.408         1e-06           6.35378e-05     0.170945        
1500       0.857217        -6.40621e+06    3999.24         2241.41         1.02212         1.09158         352.965         1e-06           6.7759e-05      0.333364        
1600       0.754999        -6.10167e+06    4195.15         4107.22         1.06181         1.13366         376.05          1e-06           7.24947e-05     0.700686        
1700       0.618374        -5.51137e+06    4551.78         8176.18         1.14435         1.22598         416.232         1e-06           7.82156e-05     1.36167         
1800       0.457219        -4.38413e+06    5194.37         14316.6         1.243           1.34257         486.037         1e-06           8.48611e-05     1.95489         
1900       0.3341          -2.91016e+06    5991.63         13000.2         1.19754         1.31104         572.432         1e-06           9.05663e-05     1.4205          
2000       0.275671        -1.91767e+06    6501.87         7911.29         1.11117         1.23467         634.878         1e-06           9.43637e-05     0.881495        
2100       0.237468        -1.0937e+06     6903.6          9231.81         1.12677         1.25909         685.972         1e-06           9.73459e-05     1.07299         
2200       0.202002        -63937.3        7382.33         10897.1         1.1498          1.2943          746.496         1e-06           9.99463e-05     1.22138         
2300       0.174155        963719          7839.43         9179.89         1.12379         1.28028         808.802         1e-06           0.000102404     0.995275        
2400       0.155639        1.7443e+06      8172.05         6585.62         1.08356         1.25118         861.339         2.642e-06       0.000104948     0.736503        
2500       0.142718        2.33654e+06     8413.95         5571.41         1.06267         1.23404         902.041         7.18037e-06     0.000107625     0.65986         
2600       0.131927        2.91401e+06     8640.36         6197.23         1.06369         1.23018         936.291         1.72145e-05     0.000110384     0.75886         
2700       0.121575        3.60045e+06     8899.26         7526.43         1.07697         1.24215         974.009         3.84908e-05     0.000113195     0.924418        
2800       0.111663        4.39063e+06     9186.57         8032.96         1.08425         1.25575         1018.43         8.84972e-05     0.000116053     0.984274        
2900       0.103068        5.15827e+06     9456.04         7137.22         1.07625         1.25989         1065.73         0.000219962     0.000118943     0.887427        
3000       0.0961762       5.80073e+06     9673.98         5709.56         1.06125         1.26217         1112.03         0.000552466     0.000121819     0.737138        
3100       0.0906975       6.30908e+06     9840.78         4524.72         1.04805         1.26988         1155.83         0.00132165      0.000124648     0.615276        
3200       0.0861947       6.719e+06       9970.99         3731.73         1.03885         1.28239         1196.72         0.00296495      0.000127421     0.507573        
3300       0.0823502       7.06453e+06     10077.4         3212.62         1.03266         1.297           1234.98         0.00624712      0.000130148     0.458331        
3400       0.0789785       7.36633e+06     10167.5         2839.78         1.02812         1.31274         1271.49         0.012429        0.000132837     0.421802        
3500       0.0759749       7.63481e+06     10245.3         2538.05         1.02433         1.32997         1307.27         0.0234961       0.0001355       0.391806        
3600       0.0732754       7.87523e+06     10313.1         2275.84         1.02089         1.34923         1343            0.04249         0.000138146     0.365899        
3700       0.0708341       8.09103e+06     10372.2         2045.44         1.01769         1.37064         1378.9          0.0740172       0.00014079      0.343472        
3800       0.0686132       8.28542e+06     10424.1         1847.99         1.01478         1.3936          1414.75         0.125033        0.000143433     0.325024        
3900       0.0665802       8.46179e+06     10469.9         1685.32         1.01221         1.41682         1449.94         0.205953        0.000146078     0.310905        
4000       0.0647068       8.62363e+06     10510.9         1556.98         1.01002         1.43863         1483.66         0.332074        0.000148724     0.301138        
4100       0.0629687       8.77425e+06     10548.1         1460.34         1.00821         1.45727         1515.07         0.525186        0.000151369     0.29549         
4200       0.0613461       8.91663e+06     10582.4         1391.6          1.00675         1.47132         1543.47         0.815202        0.000154014     0.293518        
4300       0.0598225       9.05336e+06     10614.6         1346.81         1.0056          1.47992         1568.46         1.24172         0.00015665      0.294975        
4400       0.0583846       9.18667e+06     10645.2         1322.45         1.00473         1.4828          1589.89         1.85537         0.000159276     0.299827        
4500       0.0570215       9.31844e+06     10674.8         1315.73         1.00407         1.4802          1607.9          2.71908         0.000161896     0.307669        
4600       0.0557242       9.45033e+06     10703.8         1324.56         1.00362         1.47275         1622.78         3.90929         0.000164511     0.318931        
4700       0.0544853       9.58382e+06     10732.5         1347.49         1.00333         1.4613          1634.97         5.51714         0.000167107     0.332843        
4800       0.0532984       9.72027e+06     10761.2         1383.53         1.00319         1.4468          1644.96         7.64969         0.000169698     0.349698        
4900       0.0521581       9.86094e+06     10790.2         1432.01         1.00318         1.4302          1653.28         10.4314         0.000172277     0.369627        
5000       0.0510597       1.00071e+07     10819.8         1492.32         1.0033          1.41245         1660.47         14.0051         0.000174844     0.39266         
5100       0.049999        1.01598e+07     10850           1563.88         1.00354         1.39437         1667.02         18.5331         0.000177399     0.418769        
5200       0.0489726       1.03202e+07     10881.1         1645.89         1.00388         1.37666         1673.38         24.1977         0.000179941     0.44782         
5300       0.0479771       1.04893e+07     10913.3         1737.23         1.00432         1.35987         1679.94         31.2014         0.000182471     0.47954         
5400       0.04701         1.06679e+07     10946.7         1836.34         1.00486         1.34443         1687.02         39.7666         0.000184988     0.513471        
5500       0.0460691       1.08567e+07     10981.4         1941.07         1.00548         1.33063         1694.87         50.1339         0.000187491     0.548949        
5600       0.0451525       1.10562e+07     11017.3         2048.64         1.00617         1.31865         1703.69         62.5584         0.000189982     0.585088        
5700       0.044259        1.12664e+07     11054.5         2155.57         1.00689         1.3086          1713.61         77.3094         0.00019246      0.620777        
5800       0.0433877       1.14872e+07     11092.9         2257.72         1.00763         1.3005          1724.72         94.6611         0.000194923     0.654717        
5900       0.0425382       1.17177e+07     11132.3         2350.48         1.00836         1.29434         1737.11         114.89          0.000197375     0.685502        
6000       0.0417107       1.19568e+07     11172.5         2428.99         1.00903         1.29011         1750.8          138.264         0.000199813     0.711709        
6100       0.0409055       1.22028e+07     11213.2         2488.54         1.0096          1.28774         1765.83         165.036         0.000202239     0.732072        
6200       0.0401236       1.24537e+07     11254           2525.13         1.01004         1.28722         1782.2          195.43          0.000204653     0.745615        
6300       0.0393658       1.2707e+07      11294.5         2536.01         1.01032         1.2885          1799.93         229.639         0.000207056     0.751845        
6400       0.0386333       1.296e+07       11334.3         2520.21         1.01041         1.29157         1818.99         267.811         0.000209448     0.750848        
6500       0.0379268       1.32102e+07     11373.1         2478.9          1.0103          1.2964          1839.38         310.037         0.000211828     0.743335        
6600       0.0372469       1.34551e+07     11410.5         2415.46         1.01002         1.30294         1861.02         356.358         0.0002142       0.730582        
6700       0.0365939       1.36927e+07     11446.2         2335.07         1.00958         1.31107         1883.82         406.758         0.000216561     0.714263        
6800       0.0359675       1.39217e+07     11480.2         2244.13         1.00903         1.32062         1907.58         461.163         0.00021891      0.696224        
6900       0.035367        1.41414e+07     11512.3         2149.3          1.00841         1.33126         1932.03         519.459         0.000221248     0.678258        
7000       0.034791        1.43517e+07     11542.5         2056.75         1.00777         1.34255         1956.82         581.483         0.000223573     0.661888        
7100       0.0342383       1.4553e+07      11571.1         1971.48         1.00715         1.35392         1981.5          647.036         0.000225877     0.64885         
7200       0.0337071       1.47463e+07     11598.1         1897.04         1.00658         1.36477         2005.6          715.9           0.000228169     0.638835        
7300       0.0331957       1.49329e+07     11623.8         1835.54         1.0061          1.37448         2028.65         787.83          0.000230442     0.632703        
7400       0.0327023       1.51139e+07     11648.5         1787.81         1.00571         1.38256         2050.3          862.571         0.000232694     0.630523        
7500       0.0322253       1.52909e+07     11672.2         1753.72         1.00541         1.38869         2070.29         939.864         0.000234922     0.632158        
7600       0.0317633       1.54651e+07     11695.3         1732.56         1.00522         1.3927          2088.51         1019.44         0.000237122     0.637347        
7700       0.0313148       1.56378e+07     11717.9         1723.27         1.00511         1.39464         2104.98         1101.04         0.000239294     0.645765        
7800       0.0308787       1.58101e+07     11740.1         1724.66         1.0051          1.39465         2119.81         1184.41         0.000241433     0.657071        
7900       0.0304539       1.5983e+07      11762.1         1735.52         1.00518         1.39301         2133.21         1269.29         0.000243536     0.670934        
8000       0.0300395       1.61575e+07     11784.1         1754.73         1.00533         1.39            2145.39         1355.45         0.0002456       0.687042        
8100       0.0296346       1.63342e+07     11806           1781.28         1.00555         1.38592         2156.6          1442.68         0.000247629     0.705102        
8200       0.0292386       1.65139e+07     11828.1         1814.3          1.00583         1.38107         2167.04         1530.76         0.000249607     0.724911        
8300       0.0288509       1.66973e+07     11850.3         1853.01         1.00618         1.37569         2176.92         1619.5          0.000251529     0.746439        
8400       0.0284708       1.68847e+07     11872.8         1896.75         1.00658         1.36998         2186.42         1708.73         0.000253417     0.769086        
8500       0.0280979       1.70768e+07     11895.5         1944.95         1.00703         1.36413         2195.68         1798.29         0.000255245     0.792935        
8600       0.0277319       1.72738e+07     11918.5         1997.1          1.00753         1.35827         2204.82         1888.02         0.000257019     0.817788        
8700       0.0273722       1.74763e+07     11941.9         2052.74         1.00808         1.3525          2213.94         1977.8          0.000258738     0.843507        
8800       0.0270187       1.76845e+07     11965.7         2111.46         1.00866         1.34691         2223.12         2067.51         0.0002604       0.869962        
8900       0.0266709       1.78987e+07     11989.9         2172.87         1.00929         1.34155         2232.43         2157.04         0.000262004     0.897029        
9000       0.0263286       1.81191e+07     12014.6         2236.61         1.00995         1.33647         2241.9          2246.3          0.000263549     0.924583        
9100       0.0259916       1.83461e+07     12039.6         2302.31         1.01063         1.33169         2251.58         2335.22         0.000265034     0.952512        
9200       0.0256597       1.85797e+07     12065.2         2369.63         1.01135         1.32723         2261.5          2423.7          0.000266467     0.980627        
9300       0.0253328       1.882e+07       12091.2         2438.22         1.01209         1.3231          2271.67         2511.67         0.00026784      1.00892         
9400       0.0250106       1.90673e+07     12117.6         2507.72         1.01285         1.3193          2282.11         2599.09         0.000269148     1.0373          
9500       0.024693        1.93216e+07     12144.5         2577.8          1.01363         1.31581         2292.83         2685.9          0.0002704       1.0656          
9600       0.02438         1.95829e+07     12171.9         2648.13         1.01441         1.31264         2303.82         2772.05         0.000271597     1.09373         
9700       0.0240714       1.98512e+07     12199.7         2718.36         1.01521         1.30976         2315.09         2857.5          0.000272738     1.12158         
9800       0.0237673       2.01266e+07     12227.9         2788.2          1.016           1.30717         2326.64         2942.22         0.00027383      1.14907         
9900       0.0234674       2.04088e+07     12256.6         2857.35         1.01679         1.30483         2338.45         3026.17         0.000274871     1.17609         
10000      0.0231719       2.0698e+07      12285.6         2925.55         1.01757         1.30273         2350.51         3109.34         0.000275864     1.20257         
10100      0.0228807       2.09939e+07     12315.1         2992.59         1.01834         1.30084         2362.81         3191.69         0.000276811     1.22844         
10200      0.0225937       2.12965e+07     12344.9         3058.28         1.0191          1.29913         2375.34         3273.22         0.000277715     1.25364         
10300      0.022311        2.16055e+07     12375           3122.52         1.01983         1.29759         2388.07         3353.91         0.000278576     1.27814         
10400      0.0220325       2.19209e+07     12405.5         3185.26         1.02054         1.29619         2400.98         3433.74         0.000279397     1.30188         
10500      0.0217582       2.22425e+07     12436.3         3246.53         1.02122         1.29489         2414.04         3512.72         0.00028018      1.32487         
10600      0.0214881       2.25702e+07     12467.3         3306.45         1.02187         1.29367         2427.24         3590.86         0.000280922     1.3471          
10700      0.0212223       2.29038e+07     12498.7         3365.22         1.0225          1.29249         2440.55         3668.16         0.000281627     1.36858         
10800      0.0209606       2.32432e+07     12530.2         3423.14         1.02309         1.29135         2453.93         3744.66         0.000282293     1.38937         
10900      0.0207032       2.35884e+07     12562.1         3480.61         1.02365         1.2902          2467.37         3820.37         0.000282919     1.4095          
11000      0.0204498       2.39393e+07     12594.1         3538.1          1.02419         1.28902         2480.82         3895.32         0.000283502     1.42903         
11100      0.0202005       2.4296e+07      12626.4         3596.17         1.0247          1.28779         2494.27         3969.55         0.00028404      1.44804         
11200      0.0199552       2.46586e+07     12658.9         3655.46         1.0252          1.2865          2507.69         4043.09         0.00028453      1.46663         
11300      0.0197138       2.50272e+07     12691.7         3716.65         1.02568         1.28513         2521.05         4116            0.000284966     1.48489         
11400      0.0194762       2.5402e+07      12724.7         3780.48         1.02616         1.28366         2534.35         4188.34         0.000285352     1.50272         
11500      0.0192423       2.57834e+07     12758           3847.69         1.02663         1.2821          2547.56         4260.15         0.000285664     1.52066         
11600      0.019012        2.61717e+07     12791.6         3919.03         1.02712         1.28043         2560.67         4331.51         0.000285908     1.53858         
11700      0.0187852       2.65674e+07     12825.6         3995.22         1.02761         1.27867         2573.69         4402.48         0.000286072     1.5566          
