T(K)            rho(kg/m3)      h(J/kg)         s(J/K/kg)       Cp(J/K/kg)      p*kappa_T(1)    gamma(1)        V(m/s)          sigma(S/m)      eta(kg/m/s)     kappa(W/m/K)    
300.00          5.85547         -8.34767e+06    1998.46         670.333         1               1.0928          136.612         1e-06           1.45965e-05     0.0131978       
400.00          4.3916          -8.2738e+06     2210.1          797.014         1               1.07692         156.596         1e-06           1.88298e-05     0.0203157       
500.00          3.51328         -8.18975e+06    2397.32         878.362         1               1.0693          174.459         1e-06           2.3052e-05      0.0275336       
600.00          2.92773         -8.09904e+06    2562.56         932.175         1               1.06504         190.729         1e-06           2.72876e-05     0.0347244       
700.00          2.50949         -8.00393e+06    2709.11         967.637         1               1.06251         205.766         1e-06           3.15421e-05     0.0417878       
800.00          2.1958          -7.9059e+06     2839.96         991.316         1               1.06092         219.809         1e-06           3.58108e-05     0.0486995       
900.00          1.95182         -7.80587e+06    2957.77         1008.84         1               1.0598          233.02          1e-06           4.00834e-05     0.0555362       
1000.00         1.75663         -7.70416e+06    3064.91         1025.77         1.00001         1.05879         245.507         1e-06           4.4347e-05      0.0622969       
1100.00         1.59681         -7.6013e+06     3165.3          1035.86         1.00006         1.0584          257.447         1e-06           4.85891e-05     0.0694693       
1200.00         1.463           -7.49657e+06    3256.42         1063.25         1.00038         1.05808         268.878         1e-06           5.28031e-05     0.0790824       
1300.00         1.34725         -7.38685e+06    3344.19         1146.82         1.00191         1.05884         280.077         1e-06           5.70034e-05     0.0987409       
1400.00         1.24            -7.26174e+06    3436.79         1398.77         1.0076          1.06388         291.804         1e-06           6.12632e-05     0.149899        
1500.00         1.12625         -7.09321e+06    3552.81         2076.84         1.02513         1.08211         306.145         1e-06           6.57865e-05     0.281913        
1600.00         0.983021        -6.8139e+06     3732.5          3751.38         1.07088         1.13223         327.957         1e-06           7.10102e-05     0.587717        
1700.00         0.787007        -6.26935e+06    4061.44         7662.99         1.16959         1.2427          367.433         1e-06           7.76173e-05     1.18173         
1800.00         0.552735        -5.16359e+06    4691.5          14758.7         1.30177         1.39708         440.642         1e-06           8.57387e-05     1.87534         
1900.00         0.374491        -3.53417e+06    5572.32         15272           1.26216         1.37502         539.358         1e-06           9.27762e-05     1.54208         
2000.00         0.296036        -2.37468e+06    6168.56         8783.76         1.13592         1.25744         611.5           1e-06           9.70008e-05     0.896564        
2100.00         0.251463        -1.50607e+06    6592.19         9516.99         1.13996         1.271           665.871         1e-06           0.000100061     1.02538         
2200.00         0.211184        -426472         7094            11683.7         1.16921         1.31328         729.292         1e-06           0.000102607     1.21767         
2300.00         0.179277        699356          7594.7          10233.8         1.14414         1.30018         796.159         1e-06           0.000104936     1.03614         
2400.00         0.158355        1.57209e+06     7966.58         7327.73         1.09745         1.26394         852.814         1.90525e-07     0.000107385     0.76208         
2500.00         0.144253        2.22057e+06     8231.49         5979.91         1.07077         1.24169         896.595         8.50107e-07     0.00011002      0.661347        
2600.00         0.13286         2.82988e+06     8470.41         6459.92         1.06882         1.23552         932.77          3.36451e-06     0.000112762     0.741306        
2700.00         0.122094        3.54445e+06     8739.92         7864.24         1.08201         1.24708         971.59          1.28275e-05     0.000115561     0.904227        
2800.00         0.11175         4.37901e+06     9043.34         8583.49         1.09119         1.26209         1017.35         4.70759e-05     0.000118407     0.982593        
2900.00         0.102716        5.20764e+06     9334.21         7769.96         1.084           1.26639         1066.47         0.000154912     0.000121293     0.90215         
3000.00         0.0954837       5.90943e+06     9572.27         6244.13         1.06796         1.26687         1114.61         0.00044639      0.00012418      0.75477         
3100.00         0.0897883       6.46397e+06     9754.22         4915.97         1.05321         1.27268         1160.09         0.00114588      0.000127036     0.628844        
3200.00         0.0851593       6.90712e+06     9894.99         4012.29         1.04279         1.28421         1202.55         0.00267853      0.000129842     0.543529        
3300.00         0.0812428       7.27689e+06     10008.8         3422.39         1.03579         1.29863         1242.27         0.00579667      0.000132599     0.487055        
3400.00         0.0778295       7.59727e+06     10104.5         3004.69         1.03074         1.31461         1280.12         0.0117514       0.000135318     0.445867        
3500.00         0.0748022       7.88057e+06     10186.6         2670.94         1.02661         1.33237         1317.2          0.0225248       0.000138012     0.412014        
3600.00         0.0720907       8.13291e+06     10257.7         2381.7          1.02288         1.35264         1354.37         0.0411613       0.000140694     0.38241         
3700.00         0.069646        8.35801e+06     10319.4         2125.63         1.01943         1.37589         1392.08         0.0722732       0.000143373     0.356319        
3800.00         0.0674289       8.55914e+06     10373.1         1902.71         1.01626         1.40197         1430.36         0.122822        0.000146053     0.334097        
3900.00         0.0654057       8.73971e+06     10420           1714.57         1.01343         1.43015         1468.88         0.203245        0.000148737     0.316002        
4000.00         0.0635472       8.9032e+06      10461.4         1560.71         1.011           1.45917         1507.06         0.32892         0.000151427     0.301959        
4100.00         0.0618286       9.0529e+06      10498.4         1438.13         1.00895         1.48759         1544.23         0.521872        0.000154117     0.29159         
4200.00         0.0602294       9.19172e+06     10531.8         1342.37         1.00727         1.5141          1579.8          0.812527        0.000156808     0.284364        
4300.00         0.0587328       9.3221e+06      10562.5         1268.55         1.0059          1.53778         1613.35         1.24141         0.000159495     0.279705        
4400.00         0.0573253       9.44601e+06     10591           1212.11         1.00481         1.55814         1644.71         1.86062         0.000162179     0.277095        
4500.00         0.0559961       9.56497e+06     10617.7         1169.17         1.00393         1.5751          1673.88         2.73518         0.000164856     0.27609         
4600.00         0.0547365       9.68019e+06     10643.1         1136.59         1.00323         1.58885         1701            3.9443          0.000167526     0.276339        
4700.00         0.0535391       9.79256e+06     10667.2         1111.93         1.00267         1.59975         1726.28         5.58259         0.000170188     0.277572        
4800.00         0.0523982       9.90278e+06     10690.4         1093.35         1.00222         1.60817         1749.95         7.7612          0.00017284      0.279587        
4900.00         0.0513087       1.00114e+07     10712.8         1079.47         1.00186         1.61448         1772.22         10.6092         0.000175484     0.282242        
5000.00         0.0502664       1.01188e+07     10734.5         1069.26         1.00157         1.61902         1793.27         14.2744         0.000178118     0.285431        
5100.00         0.0492678       1.02253e+07     10755.6         1061.95         1.00134         1.62208         1813.27         18.9242         0.000180741     0.289083        
5200.00         0.0483097       1.03313e+07     10776.2         1057            1.00116         1.62388         1832.35         24.7456         0.000183355     0.293153        
5300.00         0.0473892       1.04368e+07     10796.3         1053.98         1.00101         1.6246          1850.61         31.9454         0.000185959     0.297619        
5400.00         0.0465039       1.05421e+07     10816           1052.64         1.00089         1.62436         1868.12         40.7481         0.000188553     0.302467        
5500.00         0.0456516       1.06474e+07     10835.3         1052.75         1.00079         1.62327         1884.93         51.3946         0.000191136     0.307699        
5600.00         0.0448302       1.07527e+07     10854.3         1054.21         1.00072         1.62138         1901.08         64.1382         0.00019371      0.313334        
5700.00         0.0440379       1.08583e+07     10873           1056.92         1.00067         1.61875         1916.59         79.2415         0.000196273     0.319381        
5800.00         0.0432731       1.09642e+07     10891.4         1060.85         1.00064         1.6154          1931.49         96.969          0.000198826     0.325868        
5900.00         0.0425341       1.10705e+07     10909.6         1065.99         1.00062         1.61137         1945.78         117.584         0.000201369     0.332824        
6000.00         0.0418196       1.11774e+07     10927.5         1072.35         1.00062         1.60666         1959.47         141.34          0.000203901     0.340275        
6100.00         0.0411281       1.1285e+07      10945.3         1079.98         1.00063         1.60128         1972.55         168.471         0.000206424     0.348257        
6200.00         0.0404586       1.13935e+07     10963           1088.92         1.00065         1.59526         1985.04         199.19          0.000208935     0.356798        
6300.00         0.0398097       1.15029e+07     10980.5         1099.23         1.00069         1.5886          1996.93         233.679         0.000211435     0.365936        
6400.00         0.0391805       1.16134e+07     10997.9         1110.99         1.00074         1.58133         2008.24         272.077         0.000213922     0.375701        
6500.00         0.0385698       1.17252e+07     11015.2         1124.27         1.00081         1.57348         2018.97         314.485         0.000216397     0.386125        
6600.00         0.0379768       1.18384e+07     11032.5         1139.16         1.00089         1.56507         2029.15         360.959         0.000218859     0.397245        
6700.00         0.0374005       1.19532e+07     11049.7         1155.75         1.00099         1.55614         2038.78         411.501         0.000221307     0.409079        
6800.00         0.03684         1.20697e+07     11067           1174.13         1.00111         1.54675         2047.9          466.072         0.000223737     0.421658        
6900.00         0.0362947       1.21882e+07     11084.3         1194.38         1.00125         1.53695         2056.55         524.58          0.000226152     0.435007        
7000.00         0.0357636       1.23088e+07     11101.7         1216.61         1.0014          1.5268          2064.74         586.89          0.000228549     0.449145        
7100.00         0.0352461       1.24317e+07     11119.1         1240.89         1.00158         1.51635         2072.54         652.831         0.000230924     0.464087        
7200.00         0.0347415       1.25572e+07     11136.6         1267.33         1.00178         1.50569         2079.97         722.196         0.000233277     0.479848        
7300.00         0.0342491       1.26855e+07     11154.3         1295.99         1.002           1.49487         2087.1          794.755         0.000235604     0.496436        
7400.00         0.0337683       1.28167e+07     11172.2         1326.96         1.00225         1.48398         2093.98         870.255         0.000237905     0.513857        
7500.00         0.0332985       1.29512e+07     11190.3         1360.3          1.00252         1.47307         2100.65         948.431         0.000240177     0.532115        
7600.00         0.0328393       1.30892e+07     11208.5         1396.07         1.00282         1.46223         2107.17         1029.01         0.000242415     0.551203        
7700.00         0.0323899       1.32309e+07     11227.1         1434.32         1.00315         1.45152         2113.61         1111.71         0.000244619     0.571117        
7800.00         0.03195         1.33765e+07     11245.9         1475.08         1.00351         1.441           2120            1196.27         0.000246786     0.591844        
7900.00         0.031519        1.35264e+07     11264.9         1518.38         1.0039          1.43072         2126.4          1282.43         0.00024891      0.613364        
8000.00         0.0310965       1.36808e+07     11284.4         1564.21         1.00433         1.42074         2132.87         1369.93         0.00025099      0.635655        
8100.00         0.0306821       1.38399e+07     11304.1         1612.57         1.00478         1.4111          2139.44         1458.54         0.000253023     0.65869         
8200.00         0.0302755       1.4004e+07      11324.3         1663.41         1.00527         1.40184         2146.16         1548.04         0.000255006     0.682435        
8300.00         0.0298761       1.41733e+07     11344.8         1716.68         1.0058          1.39299         2153.06         1638.21         0.000256936     0.706849        
8400.00         0.0294837       1.43481e+07     11365.8         1772.3          1.00636         1.38458         2160.19         1728.88         0.000258811     0.731888        
8500.00         0.0290979       1.45286e+07     11387.1         1830.17         1.00695         1.37662         2167.57         1819.86         0.000260627     0.757493        
8600.00         0.0287185       1.47151e+07     11408.9         1890.14         1.00758         1.36914         2175.23         1911            0.000262383     0.783609        
8700.00         0.0283451       1.49076e+07     11431.2         1952.06         1.00824         1.36214         2183.18         2002.17         0.000264077     0.810166        
8800.00         0.0279776       1.51065e+07     11453.9         2015.72         1.00893         1.35562         2191.46         2093.21         0.000265708     0.837091        
8900.00         0.0276157       1.53119e+07     11477.2         2080.91         1.00965         1.34958         2200.07         2184.04         0.000267277     0.864307        
9000.00         0.0272591       1.55239e+07     11500.9         2147.38         1.0104          1.34403         2209.03         2274.55         0.00026878      0.891725        
9100.00         0.0269078       1.57426e+07     11525           2214.82         1.01117         1.33894         2218.35         2364.63         0.000270218     0.919247        
9200.00         0.0265616       1.59682e+07     11549.7         2282.93         1.01196         1.33432         2228.02         2454.2          0.000271593     0.946783        
9300.00         0.0262203       1.62006e+07     11574.8         2351.36         1.01278         1.33014         2238.07         2543.2          0.000272906     0.974227        
9400.00         0.0258838       1.64399e+07     11600.4         2419.74         1.0136          1.32639         2248.47         2631.54         0.000274157     1.00147         
9500.00         0.025552        1.6686e+07      11626.5         2487.66         1.01444         1.32306         2259.25         2719.18         0.00027535      1.02841         
9600.00         0.025225        1.69389e+07     11653           2554.72         1.01528         1.32012         2270.38         2806.05         0.000276484     1.05494         
9700.00         0.0249026       1.71985e+07     11679.9         2620.48         1.01611         1.31756         2281.87         2892.1          0.000277565     1.08094         
9800.00         0.0245848       1.74645e+07     11707.2         2684.51         1.01694         1.31534         2293.71         2977.29         0.000278596     1.10632         
9900.00         0.0242717       1.77369e+07     11734.9         2746.38         1.01775         1.31346         2305.89         3061.58         0.00027958      1.13097         
10000.00        0.0239632       1.80153e+07     11762.9         2805.66         1.01855         1.31189         2318.39         3144.91         0.000280518     1.1548          
10100.00        0.0236593       1.82996e+07     11791.2         2861.96         1.01931         1.31059         2331.2          3227.26         0.000281415     1.17772         
10200.00        0.0233601       1.85893e+07     11819.8         2914.92         1.02004         1.30955         2344.31         3308.59         0.000282276     1.19967         
10300.00        0.0230657       1.88841e+07     11848.5         2964.23         1.02073         1.30874         2357.7          3388.88         0.000283104     1.22059         
10400.00        0.0227761       1.91836e+07     11877.5         3009.63         1.02137         1.30813         2371.34         3468.12         0.000283899     1.24042         
10500.00        0.0224913       1.94874e+07     11906.6         3050.96         1.02196         1.30769         2385.21         3546.27         0.000284668     1.25914         
10600.00        0.0222114       1.97951e+07     11935.8         3088.13         1.0225          1.30738         2399.29         3623.32         0.000285409     1.27674         
10700.00        0.0219365       2.01063e+07     11965           3121.18         1.02297         1.30719         2413.54         3699.26         0.000286126     1.29322         
10800.00        0.0216665       2.04206e+07     11994.3         3150.25         1.02338         1.30706         2427.92         3774.08         0.000286821     1.30861         
10900.00        0.0214016       2.07376e+07     12023.5         3175.63         1.02373         1.30698         2442.41         3847.8          0.000287491     1.32296         
11000.00        0.0211418       2.10569e+07     12052.7         3197.73         1.02401         1.30688         2456.95         3920.42         0.000288136     1.33633         
11100.00        0.020887        2.13782e+07     12081.8         3217.13         1.02423         1.30674         2471.49         3991.96         0.000288755     1.3488          
11200.00        0.0206372       2.17013e+07     12110.8         3234.55         1.02439         1.30651         2485.99         4062.45         0.000289344     1.36047         
11300.00        0.0203924       2.2026e+07      12139.7         3250.83         1.0245          1.30615         2500.38         4131.91         0.000289899     1.37145         
